# Sample Au300K                                  
# Window limits:    3.528        17.98    
# Window Hanning, type:   1
# Haning width:            1.000
# Weight:         2
# FT points:      401
# K points:       440
# 
#   R      Amp          Re          Im          k    k^nchi(k)     wind
  0.000  0.1262E-01  0.126180E-01   0.00000      3.5280  0.369908276E-01  0.954915028E-01
  0.020  0.1306E-01  0.129246E-01  0.189759E-02  3.5650  0.428607051E-01  0.132357021    
  0.040  0.1432E-01  0.136080E-01  0.446150E-02  3.6018  0.438397288E-01  0.173878694    
  0.060  0.1621E-01  0.140557E-01  0.807805E-02  3.6403  0.398102007E-01  0.221988464    
  0.080  0.1855E-01  0.135222E-01  0.126983E-01  3.6769  0.330365868E-01  0.271454257    
  0.100  0.2119E-01  0.113987E-01  0.178652E-01  3.7123  0.228468718E-01  0.322243388    
  0.120  0.2405E-01  0.738819E-02  0.228870E-01  3.7479  0.109456818E-01  0.375618002    
  0.140  0.2709E-01  0.152634E-02  0.270473E-01  3.7844 -0.511333186E-02  0.431784389    
  0.160  0.3033E-01 -0.591901E-02  0.297422E-01  3.8190 -0.185845374E-01  0.485929096    
  0.180  0.3379E-01 -0.145689E-01  0.304919E-01  3.8552 -0.338284523E-01  0.542689115    
  0.200  0.3753E-01 -0.239735E-01  0.288706E-01  3.8895 -0.514483060E-01  0.596098118    
  0.220  0.4151E-01 -0.335380E-01  0.244601E-01  3.9251 -0.764364940E-01  0.650158993    
  0.240  0.4565E-01 -0.423983E-01  0.169278E-01  3.9601 -0.118871207      0.701668450    
  0.260  0.4977E-01 -0.493773E-01  0.624728E-02  3.9942 -0.179040839      0.749404630    
  0.280  0.5360E-01 -0.531395E-01 -0.703119E-02  4.0269 -0.247665532      0.792502247    
  0.300  0.5684E-01 -0.525615E-01 -0.216326E-01  4.0615 -0.340931039      0.834815535    
  0.320  0.5918E-01 -0.472015E-01 -0.356895E-01  4.0941 -0.418100734      0.870986095    
  0.340  0.6037E-01 -0.376462E-01 -0.471985E-01  4.1279 -0.469439277      0.904490038    
  0.360  0.6033E-01 -0.255138E-01 -0.546743E-01  4.1599 -0.499969946      0.931914460    
  0.380  0.5919E-01 -0.130191E-01 -0.577363E-01  4.1928 -0.514601349      0.955592153    
  0.400  0.5738E-01 -0.220473E-02 -0.573354E-01  4.2261 -0.512870147      0.974603158    
  0.420  0.5576E-01  0.587054E-02 -0.554468E-01  4.2578 -0.494564887      0.987891923    
  0.440  0.5551E-01  0.116241E-01 -0.542809E-01  4.2895 -0.471442365      0.996349617    
  0.460  0.5781E-01  0.168556E-01 -0.553008E-01  4.3211 -0.436057623      0.999884970    
  0.480  0.6321E-01  0.240374E-01 -0.584585E-01  4.3517 -0.375513122       1.00000000    
  0.500  0.7133E-01  0.352378E-01 -0.620136E-01  4.3829 -0.308267296       1.00000000    
  0.520  0.8118E-01  0.511167E-01 -0.630647E-01  4.4139 -0.215925920       1.00000000    
  0.540  0.9164E-01  0.704366E-01 -0.586150E-01  4.4441 -0.951776639E-01   1.00000000    
  0.560  0.1017      0.903281E-01 -0.467419E-01  4.4754  0.350285649E-01   1.00000000    
  0.580  0.1107      0.107226     -0.273712E-01  4.5065  0.153196608       1.00000000    
  0.600  0.1181      0.118085     -0.231371E-02  4.5368  0.263767540       1.00000000    
  0.620  0.1240      0.121347      0.254530E-01  4.5684  0.358081395       1.00000000    
  0.640  0.1286      0.117232      0.529304E-01  4.6396  0.504707065       1.00000000    
  0.660  0.1327      0.107245      0.781396E-01  4.6963  0.547658839       1.00000000    
  0.680  0.1371      0.931339E-01  0.100569      4.7517  0.523306598       1.00000000    
  0.700  0.1426      0.758388E-01  0.120811      4.8073  0.444735788       1.00000000    
  0.720  0.1500      0.549657E-01  0.139575      4.8632  0.361188208       1.00000000    
  0.740  0.1593      0.290889E-01  0.156572      4.9189  0.296625643       1.00000000    
  0.760  0.1699     -0.321294E-02  0.169864      4.9743  0.253298462       1.00000000    
  0.780  0.1810     -0.420648E-01  0.176089      5.0290  0.238478672       1.00000000    
  0.800  0.1916     -0.853898E-01  0.171542      5.0831  0.240831445       1.00000000    
  0.820  0.2006     -0.128898      0.153704      5.1367  0.261740679       1.00000000    
  0.840  0.2072     -0.167087      0.122513      5.1897  0.278872583       1.00000000    
  0.860  0.2110     -0.194902      0.807756E-01  5.2426  0.282580939       1.00000000    
  0.880  0.2120     -0.209355      0.334515E-01  5.2942  0.264381873       1.00000000    
  0.900  0.2108     -0.210387     -0.139485E-01  5.3447  0.214510292       1.00000000    
  0.920  0.2085     -0.200547     -0.571726E-01  5.3941  0.124660765       1.00000000    
  0.940  0.2065     -0.183610     -0.944482E-01  5.4429  0.828673448E-02   1.00000000    
  0.960  0.2061     -0.162713     -0.126537      5.4920 -0.129084425       1.00000000    
  0.980  0.2086     -0.138901     -0.155572      5.5401 -0.239081302       1.00000000    
  1.000  0.2141     -0.110767     -0.183175      5.5892 -0.328618936       1.00000000    
  1.020  0.2220     -0.754565E-01 -0.208752      5.6385 -0.401785566       1.00000000    
  1.040  0.2309     -0.306446E-01 -0.228810      5.6852 -0.441980803       1.00000000    
  1.060  0.2389      0.233829E-01 -0.237753      5.7325 -0.439334310       1.00000000    
  1.080  0.2443      0.825209E-01 -0.229952      5.7788 -0.382228528       1.00000000    
  1.100  0.2456      0.139194     -0.202306      5.8254 -0.301493863       1.00000000    
  1.120  0.2416      0.184302     -0.156197      5.8732 -0.206793427       1.00000000    
  1.140  0.2318      0.210118     -0.979427E-01  5.9193 -0.127697707       1.00000000    
  1.160  0.2163      0.213031     -0.374013E-01  5.9651 -0.468394200E-01   1.00000000    
  1.180  0.1956      0.195047      0.148566E-01  6.0089  0.262054217E-01   1.00000000    
  1.200  0.1711      0.163369      0.508159E-01  6.0546  0.101365956       1.00000000    
  1.220  0.1448      0.128159      0.674991E-01  6.0994  0.149519876       1.00000000    
  1.240  0.1202      0.992611E-01  0.677325E-01  6.1437  0.189617115       1.00000000    
  1.260  0.1019      0.830879E-01  0.589109E-01  6.1876  0.223578774       1.00000000    
  1.280  0.9515E-01  0.807970E-01  0.502435E-01  6.2315  0.259687234       1.00000000    
  1.300  0.1013      0.883733E-01  0.495248E-01  6.2754  0.279617965       1.00000000    
  1.320  0.1157      0.984972E-01  0.606181E-01  6.3196  0.262372033       1.00000000    
  1.340  0.1323      0.103416      0.825193E-01  6.3618  0.258450462       1.00000000    
  1.360  0.1473      0.977048E-01  0.110226      6.4051  0.249129677       1.00000000    
  1.380  0.1586      0.799103E-01  0.136950      6.4488  0.258880179       1.00000000    
  1.400  0.1653      0.525825E-01  0.156732      6.4911  0.281553352       1.00000000    
  1.420  0.1678      0.208254E-01  0.166459      6.5333  0.323882179       1.00000000    
  1.440  0.1669     -0.993705E-02  0.166569      6.5755  0.365813528       1.00000000    
  1.460  0.1643     -0.360579E-01  0.160328      6.6164  0.386573054       1.00000000    
  1.480  0.1624     -0.568402E-01  0.152078      6.6581  0.377552531       1.00000000    
  1.500  0.1632     -0.744242E-01  0.145233      6.6995  0.335367774       1.00000000    
  1.520  0.1685     -0.925480E-01  0.140809      6.7403  0.243485515       1.00000000    
  1.540  0.1787     -0.114743      0.137004      6.7806  0.976762467E-01   1.00000000    
  1.560  0.1930     -0.142687      0.129905      6.8211 -0.117512571       1.00000000    
  1.580  0.2096     -0.175300      0.114975      6.8616 -0.297772395       1.00000000    
  1.600  0.2269     -0.208867      0.887564E-01  6.9023 -0.432543715       1.00000000    
  1.620  0.2433     -0.238064      0.501594E-01  6.9425 -0.516970074       1.00000000    
  1.640  0.2575     -0.257497      0.962485E-03  6.9823 -0.568559698       1.00000000    
  1.660  0.2688     -0.263219     -0.546087E-01  7.0220 -0.614103239       1.00000000    
  1.680  0.2770     -0.253753     -0.111023      7.0604 -0.667031491       1.00000000    
  1.700  0.2821     -0.230330     -0.162916      7.0995 -0.675212816       1.00000000    
  1.720  0.2849     -0.196324     -0.206432      7.1387 -0.677928498       1.00000000    
  1.740  0.2863     -0.156070     -0.240032      7.1784 -0.663572769       1.00000000    
  1.760  0.2878     -0.113458     -0.264543      7.2160 -0.633295386       1.00000000    
  1.780  0.2911     -0.707257E-01 -0.282426      7.2547 -0.585204761       1.00000000    
  1.800  0.2978     -0.278509E-01 -0.296492      7.2922 -0.518461917       1.00000000    
  1.820  0.3090      0.172324E-01 -0.308470      7.3300 -0.410591807       1.00000000    
  1.840  0.3250      0.676138E-01 -0.317898      7.3670 -0.287901261       1.00000000    
  1.860  0.3455      0.125880     -0.321781      7.4057 -0.159319935       1.00000000    
  1.880  0.3694      0.192591     -0.315194      7.4427 -0.121862117E-01   1.00000000    
  1.900  0.3951      0.265322     -0.292711      7.4796  0.153101951       1.00000000    
  1.920  0.4211      0.338694     -0.250203      7.5168  0.338657533       1.00000000    
  1.940  0.4462      0.405466     -0.186327      7.5536  0.518212141       1.00000000    
  1.960  0.4698      0.458320     -0.103126      7.5894  0.658871268       1.00000000    
  1.980  0.4917      0.491665     -0.542611E-02  7.6271  0.776187584       1.00000000    
  2.000  0.5127      0.502668      0.100727      7.6626  0.845466492       1.00000000    
  2.020  0.5340      0.491028      0.209914      7.6979  0.875446955       1.00000000    
  2.040  0.5575      0.457557      0.318542      7.7335  0.865626201       1.00000000    
  2.060  0.5849      0.402229      0.424671      7.7689  0.781936500       1.00000000    
  2.080  0.6174      0.322820      0.526329      7.8040  0.688116757       1.00000000    
  2.100  0.6553      0.215134      0.618982      7.8392  0.575055621       1.00000000    
  2.120  0.6975      0.752482E-01  0.693422      7.8750  0.451747223       1.00000000    
  2.140  0.7418     -0.967451E-01  0.735505      7.9099  0.293697145       1.00000000    
  2.160  0.7853     -0.292973      0.728620      7.9438  0.987526704E-01   1.00000000    
  2.180  0.8244     -0.495861      0.658652      7.9788 -0.134757088       1.00000000    
  2.200  0.8557     -0.679603      0.519997      8.0145 -0.295832972       1.00000000    
  2.220  0.8760     -0.815392      0.320266      8.0500 -0.441883345       1.00000000    
  2.240  0.8830     -0.879228      0.813949E-01  8.0848 -0.522556588       1.00000000    
  2.260  0.8753     -0.859728     -0.164155      8.1200 -0.567466843       1.00000000    
  2.280  0.8529     -0.762849     -0.381551      8.1540 -0.576979741       1.00000000    
  2.300  0.8180     -0.611147     -0.543677      8.1881 -0.546939174       1.00000000    
  2.320  0.7746     -0.437038     -0.639507      8.2218 -0.494012469       1.00000000    
  2.340  0.7298     -0.271880     -0.677256      8.2559 -0.423218589       1.00000000    
  2.360  0.6936     -0.134691     -0.680397      8.2904 -0.363962172       1.00000000    
  2.380  0.6777     -0.249821E-01 -0.677275      8.3233 -0.326178507       1.00000000    
  2.400  0.6920      0.768592E-01 -0.687758      8.3558 -0.322667890       1.00000000    
  2.420  0.7398      0.200804     -0.712031      8.3888 -0.354673983       1.00000000    
  2.440  0.8164      0.372494     -0.726469      8.4214 -0.386923889       1.00000000    
  2.460  0.9124      0.597791     -0.689353      8.4542 -0.389459383       1.00000000    
  2.480   1.018      0.852748     -0.555641      8.4880 -0.385755888       1.00000000    
  2.500   1.124       1.08387     -0.296346      8.5202 -0.329402844       1.00000000    
  2.520   1.223       1.22022      0.842637E-01  8.5517 -0.247343537       1.00000000    
  2.540   1.311       1.19460      0.540484      8.5839 -0.136004604       1.00000000    
  2.560   1.384      0.967433      0.990303      8.6167 -0.695046329E-02   1.00000000    
  2.580   1.441      0.545232       1.33378      8.6487  0.126296960       1.00000000    
  2.600   1.480     -0.132645E-01   1.47994      8.6808  0.242324100       1.00000000    
  2.620   1.502     -0.606593       1.37416      8.7129  0.379908794       1.00000000    
  2.640   1.508      -1.11391       1.01716      8.7448  0.508162277       1.00000000    
  2.660   1.501      -1.42571      0.469271      8.7775  0.620374600       1.00000000    
  2.680   1.482      -1.47292     -0.162208      8.8095  0.715922501       1.00000000    
  2.700   1.453      -1.24547     -0.748996      8.8408  0.788204866       1.00000000    
  2.720   1.418     -0.794883      -1.17374      8.8723  0.825858456       1.00000000    
  2.740   1.376     -0.220299      -1.35847      8.9038  0.827773946       1.00000000    
  2.760   1.330      0.357518      -1.28155      8.9348  0.770311187       1.00000000    
  2.780   1.281      0.826304     -0.978997      8.9657  0.677979954       1.00000000    
  2.800   1.228       1.10778     -0.530813      8.9967  0.516243820       1.00000000    
  2.820   1.172       1.17189     -0.375266E-01  9.0279  0.381017310       1.00000000    
  2.840   1.114       1.03704      0.405555      9.0577  0.224175651       1.00000000    
  2.860   1.052      0.758154      0.728987      9.0897  0.997664332E-01   1.00000000    
  2.880  0.9879      0.407657      0.899839      9.1208 -0.501064833E-01   1.00000000    
  2.900  0.9228      0.557754E-01  0.921151      9.1514 -0.180743696       1.00000000    
  2.920  0.8580     -0.244197      0.822539      9.1823 -0.287113608       1.00000000    
  2.940  0.7950     -0.462680      0.646513      9.2131 -0.339995658       1.00000000    
  2.960  0.7354     -0.592672      0.435440      9.2427 -0.376746681       1.00000000    
  2.980  0.6807     -0.643187      0.222750      9.2731 -0.383532367       1.00000000    
  3.000  0.6316     -0.630893      0.297225E-01  9.3037 -0.378932799       1.00000000    
  3.020  0.5884     -0.573167     -0.133042      9.3334 -0.364465033       1.00000000    
  3.040  0.5505     -0.484360     -0.261698      9.3633 -0.376539651       1.00000000    
  3.060  0.5168     -0.375334     -0.355267      9.3930 -0.377122027       1.00000000    
  3.080  0.4857     -0.254968     -0.413408      9.4227 -0.340766182       1.00000000    
  3.100  0.4558     -0.131934     -0.436250      9.4537 -0.312107639       1.00000000    
  3.120  0.4258     -0.154227E-01 -0.425544      9.4837 -0.297018028       1.00000000    
  3.140  0.3953      0.856012E-01 -0.385887      9.5131 -0.287910159       1.00000000    
  3.160  0.3641      0.164088     -0.324981      9.5428 -0.313489146       1.00000000    
  3.180  0.3327      0.216550     -0.252553      9.5721 -0.344446004       1.00000000    
  3.200  0.3020      0.243747     -0.178337      9.6022 -0.335611827       1.00000000    
  3.220  0.2732      0.250027     -0.109989      9.6318 -0.338017566       1.00000000    
  3.240  0.2471      0.241608     -0.517938E-01  9.6614 -0.295573004       1.00000000    
  3.260  0.2246      0.224540     -0.461953E-02  9.6908 -0.264729248       1.00000000    
  3.280  0.2058      0.203168      0.330215E-01  9.7204 -0.220334175       1.00000000    
  3.300  0.1905      0.179602      0.633905E-01  9.7491 -0.136794130       1.00000000    
  3.320  0.1776      0.154201      0.881498E-01  9.7780 -0.319922824E-01   1.00000000    
  3.340  0.1663      0.126645      0.107717      9.8076  0.538069049E-01   1.00000000    
  3.360  0.1554      0.969895E-01  0.121451      9.8372  0.136281134       1.00000000    
  3.380  0.1445      0.662246E-01  0.128395      9.8651  0.212464037       1.00000000    
  3.400  0.1331      0.361788E-01  0.128077      9.8937  0.258192132       1.00000000    
  3.420  0.1213      0.895470E-02  0.120975      9.9216  0.320749428       1.00000000    
  3.440  0.1093     -0.137272E-01  0.108463      9.9511  0.370205647       1.00000000    
  3.460  0.9742E-01 -0.309311E-01  0.923803E-01  9.9796  0.411083649       1.00000000    
  3.480  0.8577E-01 -0.425035E-01  0.745002E-01 10.0086  0.481569846       1.00000000    
  3.500  0.7441E-01 -0.487620E-01  0.562103E-01 10.0373  0.502437980       1.00000000    
  3.520  0.6320E-01 -0.501180E-01  0.385098E-01 10.0654  0.524259863       1.00000000    
  3.540  0.5189E-01 -0.468730E-01  0.222498E-01 10.0933  0.517004163       1.00000000    
  3.560  0.4018E-01 -0.392862E-01  0.840712E-02 10.1212  0.506314253       1.00000000    
  3.580  0.2789E-01 -0.278338E-01 -0.181337E-02 10.1501  0.487987995       1.00000000    
  3.600  0.1524E-01 -0.134726E-01 -0.711909E-02 10.1781  0.460600141       1.00000000    
  3.620  0.6819E-02  0.226558E-02 -0.643174E-02 10.2063  0.371752572       1.00000000    
  3.640  0.1742E-01  0.173960E-01  0.821203E-03 10.2345  0.246846718       1.00000000    
  3.660  0.3311E-01  0.297286E-01  0.145655E-01 10.2635  0.119282433       1.00000000    
  3.680  0.5038E-01  0.370820E-01  0.341029E-01 10.2912 -0.705859952E-03   1.00000000    
  3.700  0.6914E-01  0.373603E-01  0.581782E-01 10.3182 -0.106500194       1.00000000    
  3.720  0.8959E-01  0.285378E-01  0.849237E-01 10.3464 -0.208621855       1.00000000    
  3.740  0.1120      0.873708E-02  0.111610     10.3744 -0.302585140       1.00000000    
  3.760  0.1363     -0.233790E-01  0.134317     10.4020 -0.427028609       1.00000000    
  3.780  0.1626     -0.678161E-01  0.147834     10.4285 -0.499373562       1.00000000    
  3.800  0.1905     -0.122231      0.146122     10.4556 -0.523374688       1.00000000    
  3.820  0.2192     -0.181125      0.123539     10.4827 -0.536351099       1.00000000    
  3.840  0.2479     -0.235786      0.766646E-01 10.5107 -0.512328836       1.00000000    
  3.860  0.2755     -0.275386      0.620456E-02 10.5373 -0.511195263       1.00000000    
  3.880  0.3006     -0.289225     -0.817828E-01 10.5638 -0.481066361       1.00000000    
  3.900  0.3220     -0.269642     -0.176035     10.5911 -0.454731143       1.00000000    
  3.920  0.3386     -0.214679     -0.261909     10.6177 -0.414134752       1.00000000    
  3.940  0.3495     -0.129525     -0.324599     10.6449 -0.337284594       1.00000000    
  3.960  0.3538     -0.260234E-01 -0.352869     10.6727 -0.290890066       1.00000000    
  3.980  0.3513      0.798171E-01 -0.342128     10.6988 -0.233464992       1.00000000    
  4.000  0.3420      0.171702     -0.295777     10.7251 -0.190035970       1.00000000    
  4.020  0.3264      0.237132     -0.224289     10.7514 -0.143644717       1.00000000    
  4.040  0.3055      0.270387     -0.142232     10.7780 -0.751592144E-01   1.00000000    
  4.060  0.2809      0.273453     -0.641890E-01 10.8049 -0.468084739E-02   1.00000000    
  4.080  0.2546      0.254620     -0.885262E-03 10.8317  0.511696805E-01   1.00000000    
  4.100  0.2294      0.225298      0.432208E-01 10.8585  0.106509029       1.00000000    
  4.120  0.2084      0.196170      0.701942E-01 10.8851  0.156406000       1.00000000    
  4.140  0.1945      0.174016      0.867925E-01 10.9118  0.178703579       1.00000000    
  4.160  0.1895      0.160172      0.101336     10.9385  0.201459784       1.00000000    
  4.180  0.1932      0.151015      0.120458     10.9644  0.239193439       1.00000000    
  4.200  0.2029      0.140059      0.146851     10.9910  0.268678787       1.00000000    
  4.220  0.2157      0.120770      0.178662     11.0169  0.307177203       1.00000000    
  4.240  0.2286      0.890402E-01  0.210535     11.0422  0.329098148       1.00000000    
  4.260  0.2399      0.444986E-01  0.235713     11.0685  0.333345257       1.00000000    
  4.280  0.2485     -0.960626E-02  0.248315     11.0943  0.339860461       1.00000000    
  4.300  0.2542     -0.676846E-01  0.244972     11.1204  0.360937528       1.00000000    
  4.320  0.2570     -0.123589      0.225371     11.1466  0.397941108       1.00000000    
  4.340  0.2577     -0.172183      0.191742     11.1728  0.393185431       1.00000000    
  4.360  0.2569     -0.210196      0.147710     11.1987  0.377687527       1.00000000    
  4.380  0.2554     -0.236234      0.970803E-01 11.2247  0.305629834       1.00000000    
  4.400  0.2539     -0.250179      0.430294E-01 11.2596  0.251040039       1.00000000    
  4.420  0.2527     -0.252405     -0.120961E-01 11.2958  0.218606095       1.00000000    
  4.440  0.2521     -0.243199     -0.664790E-01 11.3311  0.171068550       1.00000000    
  4.460  0.2521     -0.222597     -0.118318     11.3662  0.992767590E-01   1.00000000    
  4.480  0.2524     -0.190624     -0.165417     11.4017  0.671542847E-02   1.00000000    
  4.500  0.2527     -0.147733     -0.205060     11.4382 -0.444476296E-01   1.00000000    
  4.520  0.2528     -0.952223E-01 -0.234205     11.4737 -0.803890279E-01   1.00000000    
  4.540  0.2524     -0.354830E-01 -0.249871     11.5092 -0.136030143       1.00000000    
  4.560  0.2512      0.279647E-01 -0.249590     11.5435 -0.232041613       1.00000000    
  4.580  0.2489      0.905851E-01 -0.231831     11.5784 -0.266863336       1.00000000    
  4.600  0.2454      0.147052     -0.196413     11.6144 -0.302893841       1.00000000    
  4.620  0.2402      0.191610     -0.144910     11.6493 -0.325491878       1.00000000    
  4.640  0.2332      0.218657     -0.810482E-01 11.6843 -0.388041976       1.00000000    
  4.660  0.2239      0.223641     -0.109122E-01 11.7188 -0.390102992       1.00000000    
  4.680  0.2121      0.204225      0.572554E-01 11.7536 -0.362999383       1.00000000    
  4.700  0.1976      0.161487      0.113923     11.7875 -0.307110064       1.00000000    
  4.720  0.1806      0.100736      0.149866     11.8219 -0.261444116       1.00000000    
  4.740  0.1614      0.314679E-01  0.158285     11.8565 -0.263947977       1.00000000    
  4.760  0.1410     -0.338420E-01  0.136921     11.8912 -0.197408471       1.00000000    
  4.780  0.1214     -0.820948E-01  0.894758E-01 11.9269 -0.131989130       1.00000000    
  4.800  0.1058     -0.102606      0.257017E-01 11.9608 -0.690649717E-01   1.00000000    
  4.820  0.9857E-01 -0.900275E-01 -0.401414E-01 11.9946 -0.337512197E-01   1.00000000    
  4.840  0.1032     -0.462476E-01 -0.922736E-01 12.0287  0.196806006E-01   1.00000000    
  4.860  0.1187      0.194392E-01 -0.117126     12.0633  0.102317550       1.00000000    
  4.880  0.1410      0.921087E-01 -0.106798     12.0977  0.173815211       1.00000000    
  4.900  0.1662      0.154559     -0.612282E-01 12.1313  0.214612033       1.00000000    
  4.920  0.1917      0.191357      0.115850E-01 12.1654  0.229790945       1.00000000    
  4.940  0.2157      0.192462      0.974058E-01 12.1994  0.282611069       1.00000000    
  4.960  0.2372      0.155453      0.179103     12.2325  0.322723823       1.00000000    
  4.980  0.2554      0.858001E-01  0.240558     12.2665  0.327794379       1.00000000    
  5.000  0.2701     -0.475398E-02  0.270071     12.3008  0.315028952       1.00000000    
  5.020  0.2812     -0.101114      0.262430     12.3357  0.305239310       1.00000000    
  5.040  0.2889     -0.188156      0.219270     12.3686  0.308199838       1.00000000    
  5.060  0.2935     -0.253558      0.147898     12.4014  0.274674369       1.00000000    
  5.080  0.2955     -0.289529      0.591426E-01 12.4347  0.226422638       1.00000000    
  5.100  0.2954     -0.293271     -0.350194E-01 12.4686  0.156278123       1.00000000    
  5.120  0.2936     -0.266385     -0.123452     12.5028  0.145909423       1.00000000    
  5.140  0.2907     -0.213702     -0.197105     12.5354  0.102165819       1.00000000    
  5.160  0.2871     -0.142032     -0.249514     12.5678  0.286332393E-01   1.00000000    
  5.180  0.2830     -0.591576E-01 -0.276787     12.6012 -0.401647018E-01   1.00000000    
  5.200  0.2787      0.268290E-01 -0.277392     12.6344 -0.904627685E-01   1.00000000    
  5.220  0.2741      0.107947     -0.251979     12.6674 -0.106264008       1.00000000    
  5.240  0.2694      0.176709     -0.203311     12.6996 -0.132672960       1.00000000    
  5.260  0.2644      0.226613     -0.136215     12.7316 -0.225129556       1.00000000    
  5.280  0.2592      0.252766     -0.573840E-01 12.7636 -0.242053771       1.00000000    
  5.300  0.2538      0.252529      0.251005E-01 12.7964 -0.267516395       1.00000000    
  5.320  0.2482      0.226000      0.102549     12.8293 -0.289695444       1.00000000    
  5.340  0.2425      0.176170      0.166649     12.8612 -0.333391231       1.00000000    
  5.360  0.2369      0.108675      0.210478     12.8933 -0.362118055       1.00000000    
  5.380  0.2314      0.311721E-01  0.229339     12.9269 -0.340557671       1.00000000    
  5.400  0.2264     -0.475194E-01  0.221320     12.9586 -0.326832365       1.00000000    
  5.420  0.2218     -0.118396      0.187514     12.9902 -0.335936255       1.00000000    
  5.440  0.2178     -0.173234      0.131934     13.0220 -0.290160469       1.00000000    
  5.460  0.2144     -0.205492      0.611652E-01 13.0550 -0.275134979       1.00000000    
  5.480  0.2117     -0.211103     -0.162313E-01 13.0875 -0.202510381       1.00000000    
  5.500  0.2097     -0.189119     -0.905752E-01 13.1196 -0.123790443       1.00000000    
  5.520  0.2082     -0.142094     -0.152178     13.1513 -0.982112741E-01   1.00000000    
  5.540  0.2071     -0.760592E-01 -0.192655     13.1832 -0.214488549E-01   1.00000000    
  5.560  0.2063      0.373926E-04 -0.206270     13.2156  0.800129959E-01   1.00000000    
  5.580  0.2054      0.754885E-01 -0.191047     13.2473  0.157558272       1.00000000    
  5.600  0.2043      0.139469     -0.149349     13.2782  0.174883895       1.00000000    
  5.620  0.2028      0.182881     -0.876713E-01 13.3101  0.198385889       1.00000000    
  5.640  0.2006      0.200000     -0.156068E-01 13.3414  0.276304361       1.00000000    
  5.660  0.1976      0.189499      0.558875E-01 13.3729  0.329664595       1.00000000    
  5.680  0.1936      0.154580      0.116525     13.4040  0.355374647       1.00000000    
  5.700  0.1886      0.102135      0.158551     13.4351  0.316992138       1.00000000    
  5.720  0.1827      0.411669E-01  0.177968     13.4678  0.301614561       1.00000000    
  5.740  0.1759     -0.191233E-01  0.174859     13.5004  0.333377386       1.00000000    
  5.760  0.1685     -0.710750E-01  0.152781     13.5319  0.311958133       1.00000000    
  5.780  0.1607     -0.109715      0.117480     13.5629  0.202150131       1.00000000    
  5.800  0.1529     -0.133097      0.753457E-01 13.5943  0.162978487       1.00000000    
  5.820  0.1454     -0.141866      0.320591E-01 13.6259  0.137119852       1.00000000    
  5.840  0.1386     -0.138329     -0.824930E-02 13.6570  0.133778476       1.00000000    
  5.860  0.1326     -0.125378     -0.431917E-01 13.6878  0.359228349E-01   1.00000000    
  5.880  0.1277     -0.105649     -0.717731E-01 13.7199  0.346999287E-01   1.00000000    
  5.900  0.1240     -0.811022E-01 -0.937519E-01 13.7521 -0.968316909E-02   1.00000000    
  5.920  0.1212     -0.530663E-01 -0.109017     13.7826 -0.108767643E-01   1.00000000    
  5.940  0.1194     -0.226043E-01 -0.117220     13.8130 -0.491418893E-01   1.00000000    
  5.960  0.1181      0.904042E-02 -0.117757     13.8440 -0.110213366       1.00000000    
  5.980  0.1171      0.401333E-01 -0.110053     13.8760 -0.119873928       1.00000000    
  6.000  0.1162      0.684100E-01 -0.939893E-01 13.9072 -0.672847215E-01   1.00000000    
  6.020  0.1152      0.913216E-01 -0.702672E-01 13.9378 -0.116698447       1.00000000    
  6.040  0.1139      0.106467     -0.405847E-01 13.9682 -0.164879725       1.00000000    
  6.060  0.1123      0.112062     -0.754811E-02 13.9989 -0.181904284       1.00000000    
  6.080  0.1103      0.107313      0.256366E-01 14.0300 -0.162885304       1.00000000    
  6.100  0.1080      0.925900E-01  0.555977E-01 14.0608 -0.152082179       1.00000000    
  6.120  0.1054      0.694154E-01  0.792496E-01 14.0902 -0.201060748       1.00000000    
  6.140  0.1024      0.402752E-01  0.941770E-01 14.1214 -0.210778300       1.00000000    
  6.160  0.9926E-01  0.833288E-02  0.989146E-01 14.1528 -0.173652079       1.00000000    
  6.180  0.9589E-01 -0.229145E-01  0.931156E-01 14.1836 -0.159890525       1.00000000    
  6.200  0.9233E-01 -0.500096E-01  0.776180E-01 14.2125 -0.150611879       1.00000000    
  6.220  0.8860E-01 -0.699263E-01  0.544045E-01 14.2429 -0.185784521       1.00000000    
  6.240  0.8469E-01 -0.804621E-01  0.264364E-01 14.2731 -0.117056313       1.00000000    
  6.260  0.8063E-01 -0.805877E-01 -0.266132E-02 14.3028 -0.746167121E-01   1.00000000    
  6.280  0.7643E-01 -0.706813E-01 -0.290687E-01 14.3331 -0.656527549E-01   1.00000000    
  6.300  0.7210E-01 -0.525630E-01 -0.493457E-01 14.3626 -0.597089595E-01   1.00000000    
  6.320  0.6767E-01 -0.292692E-01 -0.610163E-01 14.3932 -0.248046714E-01   1.00000000    
  6.340  0.6319E-01 -0.456378E-02 -0.630278E-01 14.4232  0.536119525E-01   1.00000000    
  6.360  0.5870E-01  0.177381E-01 -0.559512E-01 14.4532  0.804197521E-01   1.00000000    
  6.380  0.5422E-01  0.344863E-01 -0.418452E-01 14.4826  0.561506867E-01   1.00000000    
  6.400  0.4982E-01  0.437763E-01 -0.237921E-01 14.5120  0.755799368E-01   1.00000000    
  6.420  0.4554E-01  0.452371E-01 -0.521039E-02 14.5424  0.126524307       1.00000000    
  6.440  0.4140E-01  0.399507E-01  0.108752E-01 14.5725  0.216652793       1.00000000    
  6.460  0.3747E-01  0.300329E-01  0.224123E-01 14.6012  0.152877862       1.00000000    
  6.480  0.3379E-01  0.180083E-01  0.285957E-01 14.6319  0.182358268       1.00000000    
  6.500  0.3042E-01  0.617202E-02  0.297874E-01 14.6610  0.186864493       1.00000000    
  6.520  0.2741E-01 -0.387231E-02  0.271400E-01 14.6906  0.242884816       1.00000000    
  6.540  0.2484E-01 -0.113801E-01  0.220803E-01 14.7194  0.232041224       1.00000000    
  6.560  0.2275E-01 -0.163262E-01  0.158411E-01 14.7488  0.169299765       1.00000000    
  6.580  0.2116E-01 -0.190583E-01  0.919914E-02 14.7792  0.137030370       1.00000000    
  6.600  0.2007E-01 -0.199105E-01  0.248911E-02 14.8089  0.191045884       1.00000000    
  6.620  0.1940E-01 -0.189503E-01 -0.415409E-02 14.8382  0.168058124       1.00000000    
  6.640  0.1909E-01 -0.159680E-01 -0.104612E-01 14.8663  0.460981790E-01   1.00000000    
  6.660  0.1907E-01 -0.107090E-01 -0.157799E-01 14.8960  0.722115793E-01   1.00000000    
  6.680  0.1933E-01 -0.324472E-02 -0.190528E-01 14.9254  0.670338942E-01   1.00000000    
  6.700  0.1990E-01  0.569779E-02 -0.190714E-01 14.9546  0.570407027E-01   1.00000000    
  6.720  0.2090E-01  0.146189E-01 -0.149359E-01 14.9832 -0.198704636E-01   1.00000000    
  6.740  0.2243E-01  0.214472E-01 -0.655208E-02 15.0121 -0.662269772E-01   1.00000000    
  6.760  0.2456E-01  0.240405E-01  0.503835E-02 15.0409 -0.106553816       1.00000000    
  6.780  0.2732E-01  0.208482E-01  0.176590E-01 15.0700 -0.700026575E-01   1.00000000    
  6.800  0.3064E-01  0.115173E-01  0.283899E-01 15.0984 -0.738950400E-01   1.00000000    
  6.820  0.3438E-01 -0.277931E-02  0.342687E-01 15.1272 -0.187068205       1.00000000    
  6.840  0.3839E-01 -0.194360E-01  0.331068E-01 15.1560 -0.194739103       1.00000000    
  6.860  0.4249E-01 -0.349411E-01  0.241697E-01 15.1850 -0.153072658       1.00000000    
  6.880  0.4649E-01 -0.457067E-01  0.849973E-02 15.2136 -0.157725103       1.00000000    
  6.900  0.5024E-01 -0.489666E-01 -0.112318E-01 15.2412 -0.199759790       1.00000000    
  6.920  0.5359E-01 -0.434840E-01 -0.313146E-01 15.2700 -0.199185248       1.00000000    
  6.940  0.5642E-01 -0.298636E-01 -0.478654E-01 15.2997 -0.150079907       1.00000000    
  6.960  0.5865E-01 -0.103908E-01 -0.577216E-01 15.3292 -0.140229990       1.00000000    
  6.980  0.6023E-01  0.115410E-01 -0.591187E-01 15.3568 -0.152981435       1.00000000    
  7.000  0.6116E-01  0.322323E-01 -0.519814E-01 15.3850 -0.172351049       1.00000000    
  7.020  0.6146E-01  0.484758E-01 -0.377859E-01 15.4138 -0.156178097       1.00000000    
  7.040  0.6119E-01  0.581414E-01 -0.190796E-01 15.4428 -0.802905200E-01   1.00000000    
  7.060  0.6044E-01  0.604269E-01  0.116838E-02 15.4707 -0.858543480E-01   1.00000000    
  7.080  0.5931E-01  0.557660E-01  0.201878E-01 15.4984 -0.111542682       1.00000000    
  7.100  0.5791E-01  0.454895E-01  0.358440E-01 15.5277 -0.900460360E-01   1.00000000    
  7.120  0.5637E-01  0.313889E-01  0.468215E-01 15.5560 -0.151814773E-01   1.00000000    
  7.140  0.5477E-01  0.153270E-01  0.525784E-01 15.5841  0.573215905E-01   1.00000000    
  7.160  0.5317E-01 -0.100979E-02  0.531641E-01 15.6111 -0.423754097E-03   1.00000000    
  7.180  0.5162E-01 -0.162030E-01  0.490142E-01 15.6392  0.809108021E-02   1.00000000    
  7.200  0.5011E-01 -0.290836E-01  0.408078E-01 15.6679  0.757136435E-01   1.00000000    
  7.220  0.4860E-01 -0.386878E-01  0.294202E-01 15.6965  0.128107301       1.00000000    
  7.240  0.4704E-01 -0.442585E-01  0.159401E-01 15.7233  0.821493102E-01   1.00000000    
  7.260  0.4536E-01 -0.453242E-01  0.168801E-02 15.7507  0.111418823       1.00000000    
  7.280  0.4348E-01 -0.418342E-01 -0.118350E-01 15.7796  0.790088848E-01   1.00000000    
  7.300  0.4134E-01 -0.342842E-01 -0.231028E-01 15.8076  0.158489612       1.00000000    
  7.320  0.3891E-01 -0.237577E-01 -0.308114E-01 15.8348  0.120407677       1.00000000    
  7.340  0.3614E-01 -0.118263E-01 -0.341551E-01 15.8623  0.103846092       1.00000000    
  7.360  0.3305E-01 -0.300352E-03 -0.330446E-01 15.8904  0.100311843       1.00000000    
  7.380  0.2962E-01  0.912469E-02 -0.281821E-01 15.9183  0.156919515       1.00000000    
  7.400  0.2590E-01  0.152397E-01 -0.209478E-01 15.9457  0.141561413       1.00000000    
  7.420  0.2195E-01  0.176052E-01 -0.131049E-01 15.9731  0.901910492E-01   1.00000000    
  7.440  0.1784E-01  0.166597E-01 -0.638625E-02 16.0008  0.581203615E-01   1.00000000    
  7.460  0.1376E-01  0.136075E-01 -0.206565E-02 16.0286  0.814233673E-01   1.00000000    
  7.480  0.1012E-01  0.101012E-01 -0.630952E-03 16.0562  0.153546438       1.00000000    
  7.500  0.7966E-02  0.779235E-02 -0.165219E-02 16.0836  0.933157683E-01   1.00000000    
  7.520  0.8774E-02  0.786361E-02 -0.389256E-02 16.1105  0.188732853E-01   1.00000000    
  7.540  0.1207E-01  0.106695E-01 -0.564525E-02 16.1381  0.352800871E-01   1.00000000    
  7.560  0.1644E-01  0.155885E-01 -0.521648E-02 16.1660  0.648956110E-01   1.00000000    
  7.580  0.2119E-01  0.211379E-01 -0.143059E-02 16.1929  0.579036965E-01   1.00000000    
  7.600  0.2603E-01  0.253347E-01  0.597984E-02 16.2200 -0.261707515E-01   1.00000000    
  7.620  0.3082E-01  0.262141E-01  0.162112E-01 16.2476 -0.552601618E-01   1.00000000    
  7.640  0.3546E-01  0.223717E-01  0.275080E-01 16.2754  0.235904241E-01   1.00000000    
  7.660  0.3985E-01  0.133828E-01  0.375408E-01 16.3026 -0.108074200E-01   1.00000000    
  7.680  0.4395E-01 -0.188758E-04  0.439489E-01 16.3295 -0.671486095E-01   1.00000000    
  7.700  0.4768E-01 -0.160521E-01  0.449012E-01 16.3574 -0.577591004E-01   1.00000000    
  7.720  0.5102E-01 -0.322591E-01  0.395282E-01 16.3857 -0.229208441E-01   1.00000000    
  7.740  0.5394E-01 -0.460300E-01  0.281141E-01 16.4126  0.478544017E-02   1.00000000    
  7.760  0.5643E-01 -0.551366E-01  0.120104E-01 16.4391 -0.671108500E-01   1.00000000    
  7.780  0.5852E-01 -0.581364E-01 -0.668093E-02 16.4662 -0.858720113E-01   1.00000000    
  7.800  0.6025E-01 -0.545599E-01 -0.255488E-01 16.4930 -0.830751315E-01   1.00000000    
  7.820  0.6167E-01 -0.448667E-01 -0.423044E-01 16.5209 -0.108994006E-01   1.00000000    
  7.840  0.6285E-01 -0.302327E-01 -0.550969E-01 16.5475 -0.149865259E-01   1.00000000    
  7.860  0.6385E-01 -0.122696E-01 -0.626629E-01 16.5739 -0.762588639E-01   1.00000000    
  7.880  0.6474E-01  0.722465E-02 -0.643327E-01 16.6007 -0.421140344E-01   1.00000000    
  7.900  0.6553E-01  0.264254E-01 -0.599624E-01 16.6281 -0.210490360E-01   1.00000000    
  7.920  0.6622E-01  0.435591E-01 -0.498735E-01 16.6551 -0.200282375E-01   1.00000000    
  7.940  0.6677E-01  0.569536E-01 -0.348470E-01 16.6813 -0.349936031E-01   1.00000000    
  7.960  0.6711E-01  0.651331E-01 -0.161604E-01 16.7081 -0.360599681E-01   1.00000000    
  7.980  0.6714E-01  0.669997E-01  0.439415E-02 16.7354 -0.583258463E-01   1.00000000    
  8.000  0.6678E-01  0.620808E-01  0.245971E-01 16.7619  0.419922279E-01   1.00000000    
  8.000  0.6678E-01  0.620808E-01  0.245971E-01 16.7883 -0.288915657E-02   1.00000000    
  8.000  0.6678E-01  0.620808E-01  0.245971E-01 16.8147 -0.721198064E-01   1.00000000    
  8.000  0.6678E-01  0.620808E-01  0.245971E-01 16.8686  0.635681280E-01   1.00000000    
  8.000  0.6678E-01  0.620808E-01  0.245971E-01 16.9001  0.673096729E-01   1.00000000    
  8.000  0.6678E-01  0.620808E-01  0.245971E-01 16.9318 -0.138798363E-01   1.00000000    
  8.000  0.6678E-01  0.620808E-01  0.245971E-01 16.9631 -0.389337994E-01   1.00000000    
  8.000  0.6678E-01  0.620808E-01  0.245971E-01 16.9947  0.681057894E-01   1.00000000    
  8.000  0.6678E-01  0.620808E-01  0.245971E-01 17.0254  0.294528046E-01   1.00000000    
  8.000  0.6678E-01  0.620808E-01  0.245971E-01 17.0571  0.997885298E-02   1.00000000    
  8.000  0.6678E-01  0.620808E-01  0.245971E-01 17.0886  0.551086801E-01   1.00000000    
  8.000  0.6678E-01  0.620808E-01  0.245971E-01 17.1196  0.776826926E-01   1.00000000    
  8.000  0.6678E-01  0.620808E-01  0.245971E-01 17.1506  0.308294719E-01   1.00000000    
  8.000  0.6678E-01  0.620808E-01  0.245971E-01 17.1816  0.350365272E-01  0.999999933    
  8.000  0.6678E-01  0.620808E-01  0.245971E-01 17.2136  0.794472728E-01  0.997452338    
  8.000  0.6678E-01  0.620808E-01  0.245971E-01 17.2443  0.837743060E-01  0.990274603    
  8.000  0.6678E-01  0.620808E-01  0.245971E-01 17.2754 -0.365941956E-01  0.978365440    
  8.000  0.6678E-01  0.620808E-01  0.245971E-01 17.3067 -0.107437446E-01  0.961814251    
  8.000  0.6678E-01  0.620808E-01  0.245971E-01 17.3379  0.419292405E-01  0.940828073    
  8.000  0.6678E-01  0.620808E-01  0.245971E-01 17.3688  0.952251509E-03  0.915852974    
  8.000  0.6678E-01  0.620808E-01  0.245971E-01 17.3999 -0.497318515E-01  0.886757825    
  8.000  0.6678E-01  0.620808E-01  0.245971E-01 17.4313 -0.248931862E-02  0.853709455    
  8.000  0.6678E-01  0.620808E-01  0.245971E-01 17.4622  0.387726282E-01  0.817821743    
  8.000  0.6678E-01  0.620808E-01  0.245971E-01 17.4924 -0.488105884E-01  0.779740826    
  8.000  0.6678E-01  0.620808E-01  0.245971E-01 17.5237 -0.710364300E-01  0.737773392    
  8.000  0.6678E-01  0.620808E-01  0.245971E-01 17.5555  0.807738100E-02  0.692759794    
  8.000  0.6678E-01  0.620808E-01  0.245971E-01 17.5861 -0.258206210E-01  0.647591360    
  8.000  0.6678E-01  0.620808E-01  0.245971E-01 17.6172 -0.606621774E-01  0.600256412    
  8.000  0.6678E-01  0.620808E-01  0.245971E-01 17.6474 -0.561955841E-01  0.553379636    
  8.000  0.6678E-01  0.620808E-01  0.245971E-01 17.6780 -0.153754318E-01  0.505478445    
  8.000  0.6678E-01  0.620808E-01  0.245971E-01 17.7086 -0.118847312E-01  0.457316605    
  8.000  0.6678E-01  0.620808E-01  0.245971E-01 17.7387 -0.479217121E-01  0.410565463    
  8.000  0.6678E-01  0.620808E-01  0.245971E-01 17.7699 -0.127839705E-01  0.362761948    
  8.000  0.6678E-01  0.620808E-01  0.245971E-01 17.7998 -0.886940037E-03  0.318316316    
  8.000  0.6678E-01  0.620808E-01  0.245971E-01 17.8300 -0.238880891E-01  0.275008939    
  8.000  0.6678E-01  0.620808E-01  0.245971E-01 17.8604 -0.272435340E-01  0.233522456    
  8.000  0.6678E-01  0.620808E-01  0.245971E-01 17.8913 -0.301905166E-03  0.193725260    
  8.000  0.6678E-01  0.620808E-01  0.245971E-01 17.9210  0.690870813E-02  0.158214451    
  8.000  0.6678E-01  0.620808E-01  0.245971E-01 17.9509 -0.116484740E-01  0.125494191    
  8.000  0.6678E-01  0.620808E-01  0.245971E-01 17.9814 -0.211528716E-02  0.954915028E-01
