# statistical analysis on data
# Fou-Filter of FT(chi(k))FT  
# k_min:     3.1198 K_max   18.9951
# Fourier filter above      8.000
#  <sigma_dat>   =      0.183E-02
#  <sigma2_dat>   =      0.333E-05
#                                  
#  k          chi(k)       Err             Ave_err
  3.119796   0.000757      0.0000         0.19618E-02 
  3.160915  -0.008009    -0.47831E-03     0.19647E-02 
  3.203391  -0.011611    -0.39111E-03     0.19419E-02 
  3.244663  -0.017008     0.23628E-03     0.18993E-02 
  3.284579  -0.024669     0.45099E-03     0.18660E-02 
  3.323896  -0.033966    -0.79871E-03     0.18387E-02 
  3.362442  -0.041298    -0.18132E-02     0.18134E-02 
  3.401824  -0.044393    -0.84874E-03     0.17859E-02 
  3.440184  -0.042646     0.15698E-02     0.17870E-02 
  3.478686  -0.035961     0.46782E-02     0.17686E-02 
  3.515983  -0.027205     0.32435E-02     0.17390E-02 
  3.553221  -0.014276     0.16190E-02     0.17138E-02 
  3.590730   0.000295    -0.13878E-02     0.17136E-02 
  3.626658   0.015847    -0.27041E-02     0.17357E-02 
  3.662377   0.031363    -0.29678E-02     0.17276E-02 
  3.698212   0.046804    -0.67722E-03     0.17070E-02 
  3.734933   0.058562     0.17379E-02     0.16942E-02 
  3.770774   0.063872     0.26649E-02     0.17240E-02 
  3.807760   0.062699     0.18816E-02     0.17600E-02 
  3.841249   0.057613     0.88842E-03     0.17906E-02 
  3.875701   0.048654    -0.11141E-02     0.17784E-02 
  3.909783   0.039268    -0.20206E-02     0.17874E-02 
  3.942705   0.031281    -0.13803E-02     0.18350E-02 
  3.976839   0.024296     0.89458E-04     0.19017E-02 
  4.009178   0.018034     0.76983E-03     0.19603E-02 
  4.042264   0.012506     0.97662E-03     0.19772E-02 
  4.075886   0.008090     0.98869E-03     0.19734E-02 
  4.108691   0.003084    -0.78526E-03     0.19692E-02 
  4.141172  -0.000505    -0.18161E-02     0.20109E-02 
  4.174595  -0.002287    -0.11385E-02     0.20535E-02 
  4.206692  -0.003915    -0.14180E-03     0.19503E-02 
  4.238639  -0.006386     0.56436E-03     0.18842E-02 
  4.270255  -0.009103     0.17075E-02     0.18720E-02 
  4.302432  -0.013144     0.23361E-02     0.18867E-02 
  4.333613  -0.019161     0.14339E-02     0.18589E-02 
  4.363608  -0.025137     0.71368E-03     0.18065E-02 
  4.394684  -0.032518    -0.11628E-02     0.18070E-02 
  4.424087  -0.038896    -0.25751E-02     0.17868E-02 
  4.454240  -0.043636    -0.27817E-02     0.17371E-02 
  4.483429  -0.047129    -0.27098E-02     0.17128E-02 
  4.512807  -0.048141    -0.12072E-02     0.17081E-02 
  4.541879  -0.047017     0.11357E-02     0.17003E-02 
  4.570939  -0.045283     0.26702E-02     0.16735E-02 
  4.600072  -0.043058     0.31801E-02     0.16592E-02 
  4.628455  -0.040068     0.30181E-02     0.16598E-02 
  4.656692  -0.036860     0.16956E-02     0.16600E-02 
  4.685292  -0.032833    -0.14943E-03     0.16529E-02 
  4.713440  -0.027473    -0.16216E-02     0.16456E-02 
  4.741365  -0.021024    -0.27120E-02     0.16411E-02 
  4.769182  -0.013434    -0.30666E-02     0.16159E-02 
  4.796975  -0.004661    -0.23136E-02     0.16099E-02 
  4.824553   0.004711    -0.62265E-03     0.16117E-02 
  4.851893   0.013229     0.88795E-03     0.16093E-02 
  4.879967   0.020631     0.20330E-02     0.15865E-02 
  4.907667   0.025367     0.17708E-02     0.15536E-02 
  4.934573   0.028239     0.10628E-02     0.15431E-02 
  4.961227   0.030151     0.73465E-03     0.15391E-02 
  4.987976   0.030704     0.33111E-03     0.15281E-02 
  5.016701   0.029756    -0.30627E-03     0.14802E-02 
  5.042479   0.028330    -0.43248E-03     0.14192E-02 
  5.067997   0.026332    -0.37910E-03     0.13552E-02 
  5.094777   0.023536    -0.43183E-03     0.13418E-02 
  5.120752   0.020285    -0.67829E-03     0.13335E-02 
  5.146595   0.017826    -0.37525E-04     0.12783E-02 
  5.172284   0.014579    -0.29380E-03     0.11973E-02 
  5.197517   0.011406    -0.78723E-03     0.10986E-02 
  5.223207   0.009983     0.11833E-03     0.10703E-02 
  5.248446   0.007935    -0.13272E-03     0.10868E-02 
  5.298637   0.006008    -0.13297E-03     0.10759E-02 
  5.347375   0.006492     0.13994E-03     0.98972E-03 
  5.397644   0.008988     0.72356E-03     0.86402E-03 
  5.445014   0.011354     0.49801E-03     0.79537E-03 
  5.492956   0.013374     0.12916E-03     0.82915E-03 
  5.540364   0.014363     0.34266E-04     0.84802E-03 
  5.587464   0.012141    -0.11461E-02     0.78766E-03 
  5.634753   0.008799    -0.86927E-03     0.75560E-03 
  5.681740   0.003821     0.16094E-03     0.79685E-03 
  5.727380  -0.003744     0.17152E-04     0.83518E-03 
  5.772864  -0.010654     0.92914E-03     0.84172E-03 
  5.818420  -0.017751     0.81839E-03     0.84326E-03 
  5.863668  -0.023088     0.48895E-03     0.87336E-03 
  5.908124  -0.025912     0.74034E-04     0.90783E-03 
  5.952359  -0.026462    -0.63924E-03     0.93979E-03 
  5.995786  -0.024705    -0.11638E-02     0.94464E-03 
  6.039314  -0.021227    -0.14474E-02     0.95488E-03 
  6.083695  -0.014925     0.20619E-03     0.99046E-03 
  6.126191  -0.009792     0.65210E-03     0.10227E-02 
  6.170160  -0.004475     0.12027E-02     0.10617E-02 
  6.213818   0.000133     0.12989E-02     0.10656E-02 
  6.256269   0.003425     0.48094E-03     0.10794E-02 
  6.298496   0.006354    -0.28912E-03     0.11738E-02 
  6.339925   0.008776    -0.89222E-03     0.12192E-02 
  6.381928   0.010208    -0.16071E-02     0.12245E-02 
  6.423861   0.011323    -0.14334E-02     0.12368E-02 
  6.466090   0.011964    -0.42920E-03     0.12727E-02 
  6.506977   0.012059     0.10755E-02     0.12785E-02 
  6.547828   0.010949     0.19211E-02     0.12758E-02 
  6.588685   0.008961     0.17442E-02     0.12758E-02 
  6.629271   0.006998     0.74043E-03     0.12794E-02 
  6.669668   0.006180    -0.44469E-03     0.12725E-02 
  6.709568   0.006885    -0.15012E-02     0.12680E-02 
  6.748669   0.009524    -0.16125E-02     0.12703E-02 
  6.787582   0.012603    -0.15962E-02     0.12712E-02 
  6.826755   0.015810    -0.90898E-03     0.12672E-02 
  6.865933   0.018669     0.88265E-03     0.12548E-02 
  6.904775   0.018462     0.16898E-02     0.12362E-02 
  6.943608   0.015252     0.17930E-02     0.12362E-02 
  6.982676   0.009849     0.18074E-02     0.12378E-02 
  7.021433   0.001836     0.59325E-03     0.12241E-02 
  7.059010  -0.006952    -0.10943E-02     0.12278E-02 
  7.096943  -0.015570    -0.29205E-02     0.12376E-02 
  7.133958  -0.020413    -0.22068E-02     0.12552E-02 
  7.171476  -0.023189    -0.87483E-03     0.12528E-02 
  7.209000  -0.023652     0.11081E-02     0.12328E-02 
  7.246329  -0.023812     0.18976E-02     0.12673E-02 
  7.284656  -0.024145     0.13803E-02     0.13325E-02 
  7.322083  -0.023955     0.69927E-03     0.13660E-02 
  7.359588  -0.023610    -0.13992E-03     0.13350E-02 
  7.396601  -0.022813    -0.60798E-03     0.13272E-02 
  7.432494  -0.021296    -0.39503E-03     0.14526E-02 
  7.467845  -0.019871    -0.46575E-03     0.15776E-02 
  7.504009  -0.018098    -0.68333E-03     0.15914E-02 
  7.539652  -0.015047    -0.31694E-03     0.15740E-02 
  7.574884  -0.011134     0.17301E-04     0.15898E-02 
  7.610177  -0.006195     0.33182E-03     0.16337E-02 
  7.644192  -0.000613     0.48638E-03     0.16699E-02 
  7.679850   0.005259    -0.19749E-03     0.16989E-02 
  7.714221   0.011562    -0.76838E-03     0.17052E-02 
  7.748914   0.019120    -0.30441E-03     0.16812E-02 
  7.782828   0.027488     0.14320E-02     0.17075E-02 
  7.816998   0.033030     0.10957E-02     0.17926E-02 
  7.851370   0.037880     0.13552E-02     0.18759E-02 
  7.884960   0.040023     0.74626E-03     0.19362E-02 
  7.919386   0.039170    -0.77191E-03     0.19392E-02 
  7.953579   0.035860    -0.23452E-02     0.19739E-02 
  7.988185   0.031329    -0.26394E-02     0.21100E-02 
  8.021791   0.025455    -0.21855E-02     0.22453E-02 
  8.055339   0.018967    -0.57789E-03     0.23065E-02 
  8.088179   0.011962     0.14896E-02     0.23145E-02 
  8.122809   0.004268     0.38070E-02     0.23246E-02 
  8.156279  -0.004884     0.39180E-02     0.24037E-02 
  8.189628  -0.014822     0.20001E-02     0.25099E-02 
  8.222905  -0.023578    -0.62368E-03     0.25635E-02 
  8.255937  -0.028887    -0.21332E-02     0.25770E-02 
  8.288885  -0.030668    -0.25473E-02     0.25798E-02 
  8.322018  -0.029558    -0.23573E-02     0.26073E-02 
  8.354391  -0.027096    -0.26006E-02     0.26371E-02 
  8.386890  -0.022619    -0.20202E-02     0.26596E-02 
  8.419622  -0.016097     0.11613E-03     0.26759E-02 
  8.452025  -0.010160     0.19780E-02     0.26811E-02 
  8.484428  -0.005317     0.36212E-02     0.26716E-02 
  8.517108  -0.002450     0.45564E-02     0.26706E-02 
  8.549111  -0.002764     0.37501E-02     0.26845E-02 
  8.580474  -0.006147     0.11039E-02     0.26842E-02 
  8.612196  -0.011451    -0.25833E-02     0.26837E-02 
  8.643103  -0.015866    -0.50815E-02     0.26580E-02 
  8.674686  -0.017544    -0.50475E-02     0.26250E-02 
  8.706216  -0.016775    -0.34119E-02     0.26053E-02 
  8.737676  -0.014114    -0.12184E-02     0.26038E-02 
  8.768994  -0.009294     0.14979E-02     0.25931E-02 
  8.800230  -0.003080     0.38886E-02     0.25256E-02 
  8.831355   0.003006     0.45919E-02     0.24513E-02 
  8.862386   0.008351     0.33691E-02     0.24314E-02 
  8.893220   0.013862     0.16950E-02     0.24298E-02 
  8.923272   0.018427    -0.75845E-03     0.24131E-02 
  8.953647   0.023226    -0.24139E-02     0.24349E-02 
  8.983993   0.028277    -0.25458E-02     0.24302E-02 
  9.013902   0.031980    -0.21922E-02     0.23958E-02 
  9.043726   0.033394    -0.20166E-02     0.24194E-02 
  9.074031   0.033227    -0.11057E-02     0.25130E-02 
  9.103672   0.030908    -0.11498E-03     0.25517E-02 
  9.133649   0.026625     0.99049E-03     0.24913E-02 
  9.163757   0.020768     0.21951E-02     0.24717E-02 
  9.193880   0.011125     0.69910E-03     0.25032E-02 
  9.223734   0.002644     0.70355E-03     0.25424E-02 
  9.277824  -0.012264     0.33353E-04     0.25094E-02 
  9.321075  -0.020681    -0.18363E-04     0.24460E-02 
  9.363103  -0.025820    -0.79822E-03     0.24182E-02 
  9.405292  -0.025585    -0.16277E-03     0.24054E-02 
  9.447432  -0.022361     0.64536E-04     0.23977E-02 
  9.491155  -0.017875    -0.82271E-03     0.23947E-02 
  9.533011  -0.012079    -0.73832E-03     0.23568E-02 
  9.574726  -0.006925    -0.35677E-03     0.23101E-02 
  9.616233  -0.004009    -0.26420E-03     0.22741E-02 
  9.658457  -0.002070     0.11456E-02     0.22583E-02 
  9.699646  -0.001389     0.32735E-02     0.22769E-02 
  9.740701  -0.005044     0.21574E-02     0.22896E-02 
  9.781517  -0.010095    -0.34354E-03     0.23123E-02 
  9.822243  -0.014270    -0.29379E-02     0.22958E-02 
  9.863081  -0.015573    -0.42980E-02     0.22780E-02 
  9.904054  -0.012767    -0.34291E-02     0.22932E-02 
  9.944424  -0.004841     0.96045E-03     0.23205E-02 
  9.984670   0.002928     0.41079E-02     0.23514E-02 
 10.026207   0.008582     0.45093E-02     0.23359E-02 
 10.065278   0.011926     0.30206E-02     0.23335E-02 
 10.104302   0.013300     0.58211E-04     0.23595E-02 
 10.143901   0.013261    -0.36401E-02     0.24359E-02 
 10.184441   0.015232    -0.44798E-02     0.24736E-02 
 10.223562   0.018327    -0.30302E-02     0.24711E-02 
 10.262828   0.021660    -0.48725E-04     0.24936E-02 
 10.301843   0.021739     0.12904E-02     0.25568E-02 
 10.340786   0.020090     0.28150E-02     0.26024E-02 
 10.380077   0.015476     0.35147E-02     0.26005E-02 
 10.418312   0.007059     0.21831E-02     0.26202E-02 
 10.457726  -0.003849     0.26510E-04     0.26552E-02 
 10.496216  -0.014922    -0.19890E-02     0.26670E-02 
 10.535649  -0.024368    -0.28526E-02     0.26163E-02 
 10.573546  -0.031162    -0.32641E-02     0.26039E-02 
 10.611628  -0.032822    -0.13301E-02     0.26173E-02 
 10.650031  -0.030813     0.90398E-03     0.25759E-02 
 10.688626  -0.026544     0.20002E-02     0.24867E-02 
 10.726521  -0.020489     0.22481E-02     0.24282E-02 
 10.764269  -0.012744     0.25992E-02     0.24240E-02 
 10.801193  -0.006358     0.13784E-02     0.23355E-02 
 10.838682  -0.000952    -0.20721E-03     0.22247E-02 
 10.876451   0.002420    -0.23202E-02     0.21746E-02 
 10.913104   0.004400    -0.38269E-02     0.21746E-02 
 10.950186   0.007314    -0.27217E-02     0.21010E-02 
 10.987166   0.010222    -0.37554E-03     0.19801E-02 
 11.024236   0.012700     0.21211E-02     0.19226E-02 
 11.060791   0.014181     0.35742E-02     0.19227E-02 
 11.097497   0.014269     0.31756E-02     0.19208E-02 
 11.134035   0.012517     0.38018E-03     0.18920E-02 
 11.171405   0.011515    -0.20596E-02     0.18169E-02 
 11.207667   0.012179    -0.27310E-02     0.17928E-02 
 11.243789   0.013745    -0.19582E-02     0.18271E-02 
 11.279376   0.015612     0.34428E-04     0.18346E-02 
 11.315408   0.015772     0.14345E-02     0.17822E-02 
 11.351372   0.013733     0.17056E-02     0.17244E-02 
 11.387453   0.009119     0.21741E-03     0.17450E-02 
 11.423017   0.004790    -0.63449E-03     0.17564E-02 
 11.458758   0.001451    -0.50395E-03     0.17282E-02 
 11.495814  -0.000927     0.32797E-03     0.16949E-02 
 11.531659  -0.003657     0.14628E-03     0.16509E-02 
 11.567348  -0.006165    -0.36791E-03     0.16404E-02 
 11.602157  -0.007896    -0.54437E-03     0.16441E-02 
 11.638306  -0.008683     0.75090E-04     0.16041E-02 
 11.673579  -0.009269     0.81883E-03     0.14856E-02 
 11.708375  -0.010850     0.56763E-03     0.14221E-02 
 11.743359  -0.012242     0.46074E-03     0.14244E-02 
 11.778562  -0.013873    -0.11844E-03     0.14118E-02 
 11.813561  -0.015487    -0.11720E-02     0.13175E-02 
 11.848522  -0.016040    -0.18784E-02     0.12245E-02 
 11.882861  -0.014285    -0.11024E-02     0.12700E-02 
 11.917652  -0.010221     0.11323E-02     0.12377E-02 
 11.953374  -0.006519     0.22288E-02     0.11607E-02 
 11.987315  -0.003589     0.22504E-02     0.11187E-02 
 12.021803  -0.002004     0.73877E-03     0.11265E-02 
 12.056629  -0.001333    -0.15987E-02     0.11154E-02 
 12.091538   0.000842    -0.21507E-02     0.10828E-02 
 12.125590   0.003778    -0.15552E-02     0.10828E-02 
 12.159589   0.007168    -0.26413E-03     0.10783E-02 
 12.193537   0.010126     0.69980E-03     0.10754E-02 
 12.227380   0.012379     0.93303E-03     0.10743E-02 
 12.261407   0.014283     0.72098E-03     0.10791E-02 
 12.294807   0.016370     0.72049E-03     0.10947E-02 
 12.329106   0.018022     0.43879E-03     0.11100E-02 
 12.362673   0.018997     0.57004E-04     0.11105E-02 
 12.397610   0.019276    -0.11369E-03     0.11169E-02 
 12.430887   0.017943    -0.63710E-03     0.11576E-02 
 12.464327   0.014622    -0.17525E-02     0.11801E-02 
 12.497941   0.011214    -0.15743E-02     0.11800E-02 
 12.531474   0.008907     0.79061E-03     0.11750E-02 
 12.564584   0.005070     0.21644E-02     0.11477E-02 
 12.597722  -0.001305     0.10021E-02     0.11403E-02 
 12.630419  -0.006569     0.27368E-03     0.11382E-02 
 12.663177  -0.010296    -0.20322E-04     0.10894E-02 
 12.695799  -0.013115    -0.84033E-03     0.10322E-02 
 12.728327  -0.013823    -0.10293E-02     0.10262E-02 
 12.761029  -0.012237    -0.20286E-03     0.10121E-02 
 12.793709  -0.010646    -0.22885E-03     0.97350E-03 
 12.827677  -0.008535    -0.93009E-04     0.96002E-03 
 12.860178  -0.006813     0.68814E-04     0.98280E-03 
 12.892566  -0.006031     0.11503E-03     0.97941E-03 
 12.925228  -0.005877     0.65874E-03     0.96878E-03 
 12.957939  -0.006889     0.12214E-02     0.97308E-03 
 12.990255  -0.009328     0.12836E-02     0.10344E-02 
 13.022441  -0.013820    -0.22466E-03     0.11559E-02 
 13.054456  -0.017592    -0.11156E-02     0.11950E-02 
 13.087306  -0.020705    -0.20046E-02     0.12027E-02 
 13.119864  -0.021123    -0.15227E-02     0.12462E-02 
 13.151223  -0.018939    -0.80344E-04     0.12762E-02 
 13.183155  -0.015366     0.95033E-03     0.13061E-02 
 13.214930  -0.011071     0.99628E-03     0.13239E-02 
 13.247392  -0.005528     0.73293E-03     0.12822E-02 
 13.279053   0.001398     0.10416E-02     0.12731E-02 
 13.311358   0.008280     0.79210E-03     0.12954E-02 
 13.342818   0.014655     0.45607E-03     0.13579E-02 
 13.374391   0.019932    -0.21748E-03     0.14211E-02 
 13.405918   0.023669    -0.11859E-02     0.14603E-02 
 13.437450   0.026756    -0.12497E-02     0.14716E-02 
 13.468674   0.028247    -0.11733E-02     0.14897E-02 
 13.500030   0.027749    -0.13564E-02     0.15597E-02 
 13.531827   0.026635    -0.47258E-03     0.16365E-02 
 13.563163   0.023894     0.20654E-03     0.16742E-02 
 13.594166   0.020083     0.92394E-03     0.16844E-02 
 13.625271   0.016134     0.23333E-02     0.16739E-02 
 13.656940   0.011167     0.32925E-02     0.16724E-02 
 13.687903   0.003915     0.19175E-02     0.17092E-02 
 13.718806  -0.004453    -0.86427E-03     0.17517E-02 
 13.749344  -0.010672    -0.21599E-02     0.17457E-02 
 13.780461  -0.015105    -0.24694E-02     0.17332E-02 
 13.811698  -0.018017    -0.23614E-02     0.17339E-02 
 13.842429  -0.018994    -0.15788E-02     0.17306E-02 
 13.873006  -0.018545    -0.58018E-03     0.17355E-02 
 13.903714  -0.017135     0.27448E-03     0.17612E-02 
 13.934798  -0.014381     0.15399E-02     0.17927E-02 
 13.964825  -0.011291     0.25747E-02     0.18159E-02 
 13.995313  -0.008694     0.27813E-02     0.18164E-02 
 14.025782  -0.006739     0.23598E-02     0.18272E-02 
 14.056689  -0.005822     0.11716E-02     0.18488E-02 
 14.087062  -0.006921    -0.14828E-02     0.18687E-02 
 14.117676  -0.007418    -0.29224E-02     0.18833E-02 
 14.148076  -0.007314    -0.31343E-02     0.18721E-02 
 14.179151  -0.006619    -0.22366E-02     0.18715E-02 
 14.209041  -0.006232    -0.13448E-02     0.18716E-02 
 14.239043  -0.005187     0.27706E-03     0.18662E-02 
 14.269359  -0.004667     0.12056E-02     0.18385E-02 
 14.299427  -0.003647     0.22411E-02     0.17770E-02 
 14.329332  -0.002698     0.26707E-02     0.17644E-02 
 14.358735  -0.002489     0.17822E-02     0.17655E-02 
 14.388745  -0.001809     0.76300E-03     0.17327E-02 
 14.418364  -0.000107     0.31167E-03     0.16881E-02 
 14.449302   0.001501    -0.66757E-03     0.16533E-02 
 14.479042   0.003488    -0.12974E-02     0.16531E-02 
 14.509219   0.005340    -0.20299E-02     0.16785E-02 
 14.539612   0.007367    -0.23593E-02     0.16802E-02 
 14.570438   0.009732    -0.19955E-02     0.16625E-02 
 14.599877   0.012675    -0.52512E-03     0.16119E-02 
 14.629553   0.015502     0.12718E-02     0.15509E-02 
 14.659384   0.016963     0.21436E-02     0.15067E-02 
 14.689985   0.017125     0.21259E-02     0.15033E-02 
 14.719613   0.016687     0.18869E-02     0.14956E-02 
 14.748630   0.014671     0.39798E-03     0.14381E-02 
 14.778495   0.013018    -0.37514E-03     0.13516E-02 
 14.807813   0.011946    -0.23258E-03     0.13074E-02 
 14.837180   0.010373    -0.21466E-03     0.12905E-02 
 14.865967   0.007485    -0.11542E-02     0.12902E-02 
 14.895042   0.004880    -0.13951E-02     0.13012E-02 
 14.924070   0.002167    -0.13786E-02     0.12817E-02 
 14.954261  -0.000556    -0.95091E-03     0.12361E-02 
 14.983296  -0.003072    -0.26207E-03     0.12231E-02 
 15.012468  -0.005999     0.39073E-04     0.12241E-02 
 15.041356  -0.008088     0.96235E-03     0.12269E-02 
 15.071216  -0.010198     0.15672E-02     0.12546E-02 
 15.100514  -0.011919     0.19307E-02     0.12863E-02 
 15.129277  -0.014650     0.55345E-03     0.12831E-02 
 15.157986  -0.015854    -0.56111E-04     0.12392E-02 
 15.187280  -0.015698    -0.69579E-04     0.12007E-02 
 15.215922  -0.014644     0.13370E-03     0.12034E-02 
 15.244614  -0.013788    -0.40378E-03     0.11883E-02 
 15.273098  -0.012620    -0.97793E-03     0.11681E-02 
 15.301571  -0.010868    -0.11283E-02     0.11683E-02 
 15.331378  -0.009119    -0.13392E-02     0.12013E-02 
 15.359743  -0.006524    -0.42091E-03     0.12645E-02 
 15.388125  -0.005253    -0.54253E-03     0.12953E-02 
 15.417075  -0.003857    -0.24125E-03     0.13033E-02 
 15.446048  -0.002610     0.20280E-03     0.13466E-02 
 15.474398  -0.000604     0.16126E-02     0.14553E-02 
 15.503178   0.000073     0.17339E-02     0.15277E-02 
 15.531517   0.000581     0.15927E-02     0.15561E-02 
 15.560563   0.001283     0.13769E-02     0.15545E-02 
 15.588924   0.001982     0.82620E-03     0.15591E-02 
 15.617149   0.002182    -0.61173E-03     0.16123E-02 
 15.645164   0.003002    -0.17873E-02     0.16807E-02 
 15.673497   0.004879    -0.22138E-02     0.17110E-02 
 15.701796   0.007579    -0.19490E-02     0.17008E-02 
 15.729735   0.010808    -0.10643E-02     0.16991E-02 
 15.757725   0.013484    -0.47038E-03     0.17033E-02 
 15.785607   0.014824    -0.73521E-03     0.17211E-02 
 15.814079   0.016962     0.41872E-03     0.17304E-02 
 15.841911   0.018388     0.16401E-02     0.17473E-02 
 15.869711   0.018292     0.21305E-02     0.17545E-02 
 15.897793   0.017383     0.25863E-02     0.17545E-02 
 15.925808   0.015293     0.25281E-02     0.17418E-02 
 15.953972   0.012027     0.18153E-02     0.17444E-02 
 15.981150   0.006520    -0.93655E-03     0.17516E-02 
 16.008790   0.002414    -0.21546E-02     0.17631E-02 
 16.036399  -0.001880    -0.36763E-02     0.17659E-02 
 16.065055  -0.004039    -0.32533E-02     0.17479E-02 
 16.092176  -0.005159    -0.23243E-02     0.17263E-02 
 16.119537  -0.005298    -0.84089E-03     0.17107E-02 
 16.147070  -0.004845     0.80119E-03     0.16983E-02 
 16.175644  -0.003877     0.25966E-02     0.16934E-02 
 16.203090  -0.003830     0.31534E-02     0.16918E-02 
 16.230805  -0.004782     0.25617E-02     0.16703E-02 
 16.257819  -0.006137     0.15290E-02     0.16428E-02 
 16.285900  -0.007799     0.28083E-03     0.16174E-02 
 16.313233  -0.009382    -0.75326E-03     0.16225E-02 
 16.340272  -0.010895    -0.15630E-02     0.16472E-02 
 16.367474  -0.011309    -0.11395E-02     0.16706E-02 
 16.394791  -0.012648    -0.15865E-02     0.16720E-02 
 16.422222  -0.013294    -0.14047E-02     0.16766E-02 
 16.449002  -0.013620    -0.11246E-02     0.16795E-02 
 16.476096  -0.012893    -0.12696E-03     0.16558E-02 
 16.503663  -0.011818     0.74003E-03     0.16423E-02 
 16.531866  -0.010602     0.11410E-02     0.16615E-02 
 16.558960  -0.009044     0.12943E-02     0.16555E-02 
 16.585985  -0.007683     0.66164E-03     0.16571E-02 
 16.613132  -0.005557     0.25839E-03     0.16824E-02 
 16.640724  -0.002762     0.66261E-04     0.17691E-02 
 16.667263  -0.000345    -0.62733E-03     0.18039E-02 
 16.694200   0.003050    -0.44363E-03     0.17990E-02 
 16.721038   0.006431    -0.12612E-03     0.18415E-02 
 16.748358   0.009756     0.40543E-03     0.19316E-02 
 16.775141   0.012162     0.54964E-03     0.20406E-02 
 16.801881   0.014401     0.11192E-02     0.20846E-02 
 16.829094   0.015002     0.69970E-03     0.20889E-02 
 16.855881   0.013275    -0.13409E-02     0.21175E-02 
 16.907387   0.011560    -0.18580E-02     0.22695E-02 
 16.938118   0.009872    -0.19068E-02     0.24156E-02 
 16.969528   0.009018    -0.60648E-03     0.24936E-02 
 17.001274   0.009002     0.18170E-02     0.24895E-02 
 17.032344   0.006991     0.22226E-02     0.24906E-02 
 17.063319   0.004409     0.18759E-02     0.25674E-02 
 17.094338   0.002782     0.21478E-02     0.26648E-02 
 17.125798   0.001592     0.24148E-02     0.27187E-02 
 17.156345  -0.001430     0.28901E-03     0.27263E-02 
 17.187295  -0.004300    -0.22026E-02     0.27201E-02 
 17.219683  -0.006080    -0.41098E-02     0.27392E-02 
 17.250345  -0.006205    -0.47498E-02     0.27725E-02 
 17.281415  -0.003903    -0.32204E-02     0.28208E-02 
 17.311869   0.000089    -0.66186E-04     0.28471E-02 
 17.343215   0.003528     0.26143E-02     0.28477E-02 
 17.374006   0.005888     0.45103E-02     0.28518E-02 
 17.404667   0.006632     0.52209E-02     0.28709E-02 
 17.435778   0.004619     0.37186E-02     0.29073E-02 
 17.466466   0.001562     0.17445E-02     0.29126E-02 
 17.496680  -0.003994    -0.22118E-02     0.29136E-02 
 17.527434  -0.009064    -0.52190E-02     0.29063E-02 
 17.558171  -0.011625    -0.54618E-02     0.28974E-02 
 17.588705  -0.012564    -0.40753E-02     0.28950E-02 
 17.619611  -0.011903    -0.13052E-02     0.28990E-02 
 17.650120  -0.010693     0.14843E-02     0.28876E-02 
 17.680577  -0.008934     0.40975E-02     0.28705E-02 
 17.710804  -0.008492     0.45174E-02     0.28554E-02 
 17.741090  -0.008560     0.34867E-02     0.28355E-02 
 17.771524  -0.008438     0.17204E-02     0.28171E-02 
 17.802282  -0.008000    -0.56127E-03     0.28322E-02 
 17.832096  -0.006374    -0.21448E-02     0.28244E-02 
 17.862323  -0.003386    -0.27251E-02     0.27499E-02 
 17.892507  -0.000362    -0.32852E-02     0.26480E-02 
 17.922633   0.003714    -0.25222E-02     0.26239E-02 
 17.953307   0.008504    -0.57737E-03     0.26383E-02 
 17.983878   0.012169     0.97430E-03     0.26082E-02 
 18.013938   0.014597     0.21342E-02     0.25091E-02 
 18.043708   0.015861     0.29511E-02     0.23712E-02 
 18.073466   0.014187     0.15778E-02     0.23085E-02 
 18.103036   0.012531     0.84381E-03     0.23080E-02 
 18.133246   0.010593     0.32506E-03     0.22892E-02 
 18.162713   0.007414    -0.11797E-02     0.21371E-02 
 18.192946   0.005001    -0.17538E-02     0.19607E-02 
 18.222417   0.003853    -0.11371E-02     0.18753E-02 
 18.252256   0.002531    -0.81449E-03     0.18849E-02 
 18.282227   0.000915    -0.99210E-03     0.18790E-02 
 18.312063   0.000457    -0.26052E-03     0.17638E-02 
 18.342815   0.000051     0.31304E-03     0.16226E-02 
 18.372424   0.000291     0.12927E-02     0.15391E-02 
 18.401985   0.000279     0.18680E-02     0.15281E-02 
 18.432061  -0.000325     0.17579E-02     0.15450E-02 
 18.462685  -0.002003     0.52639E-03     0.15260E-02 
 18.491924  -0.003688    -0.74849E-03     0.14802E-02 
 18.521592  -0.005660    -0.22974E-02     0.13971E-02 
 18.551432  -0.005549    -0.17418E-02     0.13513E-02 
 18.581061  -0.004988    -0.72240E-03     0.13674E-02 
 18.610537  -0.004958    -0.23196E-03     0.13776E-02 
 18.639995  -0.004591     0.57808E-03     0.13471E-02 
 18.671122  -0.004142     0.14491E-02     0.12619E-02 
 18.700428  -0.004192     0.17198E-02     0.12500E-02 
 18.729850  -0.004931     0.11981E-02     0.12617E-02 
 18.759267  -0.005660     0.55194E-03     0.12825E-02 
 18.789532  -0.007082    -0.95246E-03     0.12862E-02 
 18.818815  -0.007748    -0.18753E-02     0.12647E-02 
 18.847891  -0.007212    -0.17724E-02     0.12696E-02 
 18.876770  -0.005995    -0.11483E-02     0.12850E-02 
 18.906077  -0.004099     0.37697E-05     0.12963E-02 
 18.935519  -0.002121     0.11344E-02     0.13242E-02 
 18.964306  -0.001121     0.12631E-02     0.13537E-02 
 18.995067  -0.000204     0.12679E-02     0.13567E-02 
