# Sample Au300K                                  
# Window limits:    3.516        17.98    
# Window Hanning, type:   1
# Haning width:            1.000
# Weight:         2
# FT points:      401
# K points:       435
# 
#   R      Amp          Re          Im          k    k^nchi(k)     wind
  0.000  0.2259     -0.225857       0.00000      3.5160 -0.321149382E-01  0.954915028E-01
  0.020  0.2217     -0.198890     -0.980337E-01  3.5532 -0.238921949E-01  0.132559349    
  0.040  0.2097     -0.128957     -0.165309      3.5907  0.665381734E-03  0.174974315    
  0.060  0.1905     -0.433442E-01 -0.185500      3.6267  0.458191830E-01  0.219836137    
  0.080  0.1659      0.281748E-01 -0.163501      3.6624  0.112727557      0.267972371    
  0.100  0.1388      0.679586E-01 -0.121028      3.6982  0.204326099      0.319197532    
  0.120  0.1143      0.780552E-01 -0.835396E-01  3.7349  0.305579406      0.374058155    
  0.140  0.1009      0.766388E-01 -0.656800E-01  3.7708  0.389812458      0.429225119    
  0.160  0.1063      0.853370E-01 -0.633522E-01  3.8078  0.442795043      0.487085897    
  0.180  0.1279      0.114527     -0.569888E-01  3.8412  0.458745143      0.539646778    
  0.200  0.1569      0.155012     -0.244721E-01  3.8757  0.433571160      0.593256609    
  0.220  0.1864      0.181249      0.433106E-01  3.9098  0.387298313      0.645217932    
  0.240  0.2121      0.165083      0.133139      3.9427  0.337382727      0.693837994    
  0.260  0.2318      0.929972E-01  0.212292      3.9768  0.285134503      0.742054753    
  0.280  0.2442     -0.225539E-01  0.243156      4.0092  0.227597142      0.785178073    
  0.300  0.2490     -0.144669      0.202705      4.0423  0.168839494      0.826251444    
  0.320  0.2467     -0.226877      0.967730E-01  4.0759  0.116167405      0.864380540    
  0.340  0.2380     -0.234769     -0.390155E-01  4.1087  0.467395280E-01  0.897670324    
  0.360  0.2243     -0.163693     -0.153346      4.1412 -0.802877042E-02  0.926475368    
  0.380  0.2069     -0.430629E-01 -0.202332      4.1746 -0.379223582E-01  0.951481236    
  0.400  0.1867      0.758794E-01 -0.170534      4.2067 -0.672505967E-01  0.970816828    
  0.420  0.1641      0.143757     -0.790832E-01  4.2386 -0.113042981      0.985312522    
  0.440  0.1390      0.136901      0.239257E-01  4.2703 -0.165134018      0.994849535    
  0.460  0.1112      0.693147E-01  0.869110E-01  4.3024 -0.243199877      0.999546990    
  0.480  0.8217E-01 -0.139232E-01  0.809779E-01  4.3336 -0.359850256       1.00000000    
  0.500  0.6148E-01 -0.594605E-01  0.156289E-01  4.3636 -0.478637072       1.00000000    
  0.520  0.7296E-01 -0.339366E-01 -0.645886E-01  4.3947 -0.628030599       1.00000000    
  0.540  0.1165      0.564108E-01 -0.101925      4.4241 -0.761287872       1.00000000    
  0.560  0.1745      0.165383     -0.557902E-01  4.4542 -0.865740237       1.00000000    
  0.580  0.2387      0.227220      0.732495E-01  4.4834 -0.947337811       1.00000000    
  0.600  0.3042      0.188954      0.238451      4.5128 -0.980406142       1.00000000    
  0.620  0.3669      0.393726E-01  0.364790      4.5419 -0.969899956       1.00000000    
  0.640  0.4228     -0.180003      0.382614      4.5709 -0.946128676       1.00000000    
  0.660  0.4685     -0.388596      0.261710      4.6001 -0.911127307       1.00000000    
  0.680  0.5010     -0.500149      0.294106E-01  4.6285 -0.858356394       1.00000000    
  0.700  0.5184     -0.461105     -0.236842      4.6567 -0.799301912       1.00000000    
  0.720  0.5198     -0.276243     -0.440275      4.6853 -0.720755310       1.00000000    
  0.740  0.5057     -0.914413E-02 -0.505581      4.7134 -0.610361722       1.00000000    
  0.760  0.4780      0.243480     -0.411289      4.7414 -0.472634310       1.00000000    
  0.780  0.4398      0.392359     -0.198745      4.7692 -0.305555191       1.00000000    
  0.800  0.3955      0.392772      0.465361E-01  4.7970 -0.107262158       1.00000000    
  0.820  0.3498      0.261301      0.232557      4.8246  0.109649617       1.00000000    
  0.840  0.3070      0.648787E-01  0.300048      4.8519  0.311420259       1.00000000    
  0.860  0.2695     -0.112172      0.245089      4.8800  0.491320123       1.00000000    
  0.880  0.2369     -0.207018      0.115110      4.9077  0.610967769       1.00000000    
  0.900  0.2053     -0.204454     -0.188586E-01  4.9346  0.687619968       1.00000000    
  0.920  0.1701     -0.138116     -0.993341E-01  4.9612  0.742135752       1.00000000    
  0.940  0.1290     -0.670679E-01 -0.110154      4.9880  0.763907402       1.00000000    
  0.960  0.9052E-01 -0.403756E-01 -0.810146E-01  5.0167  0.748886792       1.00000000    
  0.980  0.9555E-01 -0.683494E-01 -0.667736E-01  5.0425  0.720328355       1.00000000    
  1.000  0.1615     -0.115792     -0.112542      5.0680  0.676329946       1.00000000    
  1.020  0.2540     -0.121375     -0.223175      5.0948  0.610928764       1.00000000    
  1.040  0.3556     -0.336392E-01 -0.354029      5.1208  0.531927525       1.00000000    
  1.060  0.4564      0.155033     -0.429307      5.1466  0.472155549       1.00000000    
  1.080  0.5483      0.395060     -0.380155      5.1723  0.390032034       1.00000000    
  1.100  0.6235      0.595796     -0.183807      5.1975  0.308125681       1.00000000    
  1.120  0.6755      0.665355      0.116674      5.2232  0.272355280       1.00000000    
  1.140  0.6990      0.555702      0.423978      5.2484  0.218578594       1.00000000    
  1.160  0.6904      0.290675      0.626279      5.2986  0.168678029       1.00000000    
  1.180  0.6487     -0.383805E-01  0.647595      5.3474  0.185626588       1.00000000    
  1.200  0.5752     -0.309540      0.484846      5.3976  0.261859391       1.00000000    
  1.220  0.4744     -0.423972      0.212764      5.4450  0.336638763       1.00000000    
  1.240  0.3546     -0.351437     -0.474874E-01  5.4930  0.403529375       1.00000000    
  1.260  0.2335     -0.145428     -0.182729      5.5404  0.440889504       1.00000000    
  1.280  0.1617      0.805795E-01 -0.140159      5.5875  0.379052588       1.00000000    
  1.300  0.2112      0.205842      0.473925E-01  5.6348  0.279386516       1.00000000    
  1.320  0.3192      0.159744      0.276369      5.6817  0.123341246       1.00000000    
  1.340  0.4238     -0.435742E-01  0.421600      5.7274 -0.122828428       1.00000000    
  1.360  0.5041     -0.310726      0.396936      5.7729 -0.355064355       1.00000000    
  1.380  0.5502     -0.513216      0.198374      5.8184 -0.600956193       1.00000000    
  1.400  0.5575     -0.549876     -0.918256E-01  5.8637 -0.793811135       1.00000000    
  1.420  0.5253     -0.397689     -0.343219      5.9081 -0.904495482       1.00000000    
  1.440  0.4578     -0.125743     -0.440181      5.9524 -0.937564532       1.00000000    
  1.460  0.3659      0.135773     -0.339734      5.9958 -0.888126512       1.00000000    
  1.480  0.2751      0.257909     -0.956218E-01  6.0393 -0.774216739       1.00000000    
  1.500  0.2417      0.177112      0.164535      6.0837 -0.552400625       1.00000000    
  1.520  0.3077     -0.703165E-01  0.299562      6.1262 -0.367489865       1.00000000    
  1.540  0.4256     -0.361678      0.224388      6.1702 -0.170353002       1.00000000    
  1.560  0.5465     -0.544653     -0.449016E-01  6.2138  0.513778450E-02   1.00000000    
  1.580  0.6455     -0.511364     -0.393874      6.2563  0.134069141       1.00000000    
  1.600  0.7083     -0.254059     -0.661208      6.2985  0.252076256       1.00000000    
  1.620  0.7267      0.125814     -0.715762      6.3399  0.352759423       1.00000000    
  1.640  0.6974      0.461785     -0.522622      6.3819  0.415777234       1.00000000    
  1.660  0.6230      0.600695     -0.165189      6.4239  0.467258379       1.00000000    
  1.680  0.5147      0.478472      0.189638      6.4661  0.500201516       1.00000000    
  1.700  0.4006      0.156141      0.368971      6.5070  0.510579665       1.00000000    
  1.720  0.3448     -0.203489      0.278373      6.5478  0.469440451       1.00000000    
  1.740  0.4128     -0.410077     -0.475933E-01  6.5887  0.388987438       1.00000000    
  1.760  0.5665     -0.337330     -0.455066      6.6293  0.307552104       1.00000000    
  1.780  0.7392      0.117464E-01 -0.739140      6.6697  0.274925204       1.00000000    
  1.800  0.8929      0.498956     -0.740500      6.7096  0.309966227       1.00000000    
  1.820   1.005      0.910220     -0.424999      6.7487  0.433771449       1.00000000    
  1.840   1.059       1.05464      0.932225E-01  6.7876  0.580642321       1.00000000    
  1.860   1.046      0.857398      0.599094      6.8268  0.736803113       1.00000000    
  1.880  0.9627      0.401212      0.875081      6.8659  0.880084971       1.00000000    
  1.900  0.8127     -0.106183      0.805739      6.9048  0.880184890       1.00000000    
  1.920  0.6115     -0.426617      0.438144      6.9436  0.735377620       1.00000000    
  1.940  0.4069     -0.405534     -0.331999E-01  6.9827  0.480205686       1.00000000    
  1.960  0.3573     -0.514617E-01 -0.353548      7.0214  0.905064730E-01   1.00000000    
  1.980  0.5648      0.459240     -0.328807      7.0590 -0.346396471       1.00000000    
  2.000  0.8619      0.858503      0.764487E-01  7.0969 -0.784188281       1.00000000    
  2.020   1.156      0.911039      0.712321      7.1340  -1.03889142       1.00000000    
  2.040   1.408      0.529660       1.30487      7.1715  -1.19260938       1.00000000    
  2.060   1.590     -0.174703       1.58040      7.2090  -1.22918708       1.00000000    
  2.080   1.681     -0.935931       1.39601      7.2463  -1.25034712       1.00000000    
  2.100   1.665      -1.45282      0.813580      7.2847  -1.28129926       1.00000000    
  2.120   1.534      -1.53237      0.780307E-01  7.3221  -1.28430722       1.00000000    
  2.140   1.287      -1.18767     -0.495051      7.3596  -1.27882652       1.00000000    
  2.160  0.9287     -0.639812     -0.673157      7.3966  -1.24809416       1.00000000    
  2.180  0.4805     -0.216147     -0.429165      7.4325  -1.17644501       1.00000000    
  2.200  0.1900     -0.187601      0.304063E-01  7.4678  -1.10817821       1.00000000    
  2.220  0.7136     -0.620265      0.352818      7.5040  -1.01911582       1.00000000    
  2.240   1.332      -1.31585      0.209348      7.5397 -0.855371792       1.00000000    
  2.260   1.951      -1.87885     -0.527435      7.5749 -0.638871623       1.00000000    
  2.280   2.533      -1.89058      -1.68535      7.6102 -0.358794609       1.00000000    
  2.300   3.042      -1.11709      -2.82940      7.6442 -0.357917778E-01   1.00000000    
  2.320   3.448      0.344972      -3.43100      7.6799  0.310184055       1.00000000    
  2.340   3.726       2.06079      -3.10417      7.7142  0.688025968       1.00000000    
  2.360   3.856       3.40713      -1.80564      7.7489   1.14807826       1.00000000    
  2.380   3.829       3.82746      0.977634E-01  7.7828   1.66500045       1.00000000    
  2.400   3.646       3.08744       1.93962      7.8170   2.01828538       1.00000000    
  2.420   3.327       1.41530       3.01103      7.8514   2.33506587       1.00000000    
  2.440   2.916     -0.547341       2.86464      7.8850   2.48832897       1.00000000    
  2.460   2.507      -1.98121       1.53561      7.9194   2.45658452       1.00000000    
  2.480   2.267      -2.22633     -0.425097      7.9536   2.26849754       1.00000000    
  2.500   2.396      -1.08347      -2.13704      7.9882   1.99914429       1.00000000    
  2.520   2.932       1.05267      -2.73603      8.0218   1.63801816       1.00000000    
  2.540   3.733       3.29991      -1.74597      8.0553   1.23073423       1.00000000    
  2.560   4.660       4.60999      0.677433      8.0882  0.782541416       1.00000000    
  2.580   5.617       4.18846       3.74293      8.1228  0.281634716       1.00000000    
  2.600   6.546       1.84795       6.27993      8.1563 -0.324927252       1.00000000    
  2.620   7.405      -1.85348       7.16924      8.1896 -0.994101396       1.00000000    
  2.640   8.164      -5.75865       5.78734      8.2229  -1.59422423       1.00000000    
  2.660   8.804      -8.50157       2.28937      8.2559  -1.96897987       1.00000000    
  2.680   9.314      -9.00233      -2.38822      8.2889  -2.10703874       1.00000000    
  2.700   9.687      -6.88098      -6.81892      8.3220  -2.04707889       1.00000000    
  2.720   9.926      -2.63008      -9.57148      8.3544  -1.89119435       1.00000000    
  2.740   10.04       2.52532      -9.71255      8.3869  -1.59103553       1.00000000    
  2.760   10.02       7.03393      -7.14035      8.4196  -1.14108443       1.00000000    
  2.780   9.898       9.54353      -2.62569      8.4520 -0.725793439       1.00000000    
  2.800   9.670       9.35379       2.45370      8.4844 -0.382732415       1.00000000    
  2.820   9.348       6.63427       6.58572      8.5171 -0.177689659       1.00000000    
  2.840   8.939       2.33473       8.62841      8.5491 -0.202004764       1.00000000    
  2.860   8.449      -2.16906       8.16538      8.5805 -0.452559108       1.00000000    
  2.880   7.883      -5.55623       5.59212      8.6122 -0.849323900       1.00000000    
  2.900   7.248      -6.98975       1.91769      8.6431  -1.18527207       1.00000000    
  2.920   6.550      -6.34440      -1.62876      8.6747  -1.32018022       1.00000000    
  2.940   5.798      -4.16742      -4.03123      8.7062  -1.27153983       1.00000000    
  2.960   5.003      -1.40886      -4.80082      8.7377  -1.07759389       1.00000000    
  2.980   4.180      0.959055      -4.06820      8.7690 -0.714637882       1.00000000    
  3.000   3.344       2.28341      -2.44351      8.8002 -0.238491199       1.00000000    
  3.020   2.517       2.41121     -0.720792      8.8314  0.234437914       1.00000000    
  3.040   1.719       1.66013      0.444708      8.8624  0.655931288       1.00000000    
  3.060  0.9786      0.615583      0.760747      8.8932   1.09632346       1.00000000    
  3.080  0.3789     -0.146456      0.349412      8.9233   1.46721663       1.00000000    
  3.100  0.4744     -0.292995     -0.373133      8.9536   1.86200859       1.00000000    
  3.120  0.9339      0.163689     -0.919492      8.9840   2.28226154       1.00000000    
  3.140   1.326      0.920744     -0.953797      9.0139   2.59839936       1.00000000    
  3.160   1.612       1.55563     -0.422730      9.0437   2.73123756       1.00000000    
  3.180   1.787       1.72906      0.449694      9.0740   2.73583247       1.00000000    
  3.200   1.852       1.33098       1.28715      9.1037   2.56154235       1.00000000    
  3.220   1.815      0.513171       1.74093      9.1336   2.22113287       1.00000000    
  3.240   1.690     -0.395333       1.64276      9.1638   1.74401403       1.00000000    
  3.260   1.493      -1.04355       1.06719      9.1939  0.940373224       1.00000000    
  3.280   1.245      -1.21225      0.283833      9.2237  0.224903741       1.00000000    
  3.300  0.9736     -0.899883     -0.371657      9.2778  -1.05566320       1.00000000    
  3.320  0.7165     -0.308651     -0.646624      9.3211  -1.79678904       1.00000000    
  3.340  0.5399      0.256628     -0.474978      9.3631  -2.26361685       1.00000000    
  3.360  0.5278      0.527766      0.631856E-02  9.4053  -2.26322204       1.00000000    
  3.380  0.6568      0.388385      0.529620      9.4474  -1.99582638       1.00000000    
  3.400  0.8258     -0.830078E-01  0.821606      9.4912  -1.61022108       1.00000000    
  3.420  0.9777     -0.656615      0.724455      9.5330  -1.09770231       1.00000000    
  3.440   1.090      -1.05854      0.261468      9.5747 -0.634896654       1.00000000    
  3.460   1.156      -1.09275     -0.378284      9.6162 -0.370686170       1.00000000    
  3.480   1.176     -0.725193     -0.926232      9.6585 -0.193132295       1.00000000    
  3.500   1.156     -0.958215E-01  -1.15201      9.6996 -0.130712640       1.00000000    
  3.520   1.105      0.543859     -0.961683      9.7407 -0.478612708       1.00000000    
  3.540   1.035      0.939013     -0.435794      9.7815 -0.965861754       1.00000000    
  3.560  0.9612      0.938713      0.206821      9.8222  -1.37672413       1.00000000    
  3.580  0.8968      0.557611      0.702328      9.8631  -1.51495444       1.00000000    
  3.600  0.8528     -0.323134E-01  0.852202      9.9041  -1.25230296       1.00000000    
  3.620  0.8344     -0.574895      0.604816      9.9444 -0.478684769       1.00000000    
  3.640  0.8400     -0.836571      0.755239E-01  9.9847  0.291905076       1.00000000    
  3.660  0.8635     -0.702827     -0.501746     10.0262  0.862689041       1.00000000    
  3.680  0.8995     -0.225542     -0.870807     10.0653   1.20827123       1.00000000    
  3.700  0.9456      0.397053     -0.858186     10.1043   1.35791339       1.00000000    
  3.720   1.003      0.899088     -0.444965     10.1439   1.36458837       1.00000000    
  3.740   1.076       1.05289      0.222506     10.1844   1.57990169       1.00000000    
  3.760   1.168      0.760460      0.886728     10.2236   1.91556256       1.00000000    
  3.780   1.280      0.953068E-01   1.27666     10.2628   2.28139384       1.00000000    
  3.800   1.410     -0.720910       1.21120     10.3018   2.30711170       1.00000000    
  3.820   1.550      -1.39766      0.669469     10.3408   2.14823076       1.00000000    
  3.840   1.692      -1.68055     -0.198070     10.3801   1.66744926       1.00000000    
  3.860   1.827      -1.44297      -1.12094     10.4183  0.766194019       1.00000000    
  3.880   1.945     -0.731217      -1.80261     10.4577 -0.420899053       1.00000000    
  3.900   2.038      0.252246      -2.02215     10.4962  -1.64398087       1.00000000    
  3.920   2.098       1.21945      -1.70704     10.5356  -2.70489124       1.00000000    
  3.940   2.120       1.89449     -0.952237     10.5735  -3.48386998       1.00000000    
  3.960   2.102       2.10234      0.186004E-01 10.6116  -3.69600669       1.00000000    
  3.980   2.044       1.81812      0.933070     10.6500  -3.49485551       1.00000000    
  4.000   1.946       1.16227       1.56025     10.6886  -3.03252925       1.00000000    
  4.020   1.812      0.347452       1.77881     10.7265  -2.35739135       1.00000000    
  4.040   1.650     -0.399728       1.60099     10.7643  -1.47666713       1.00000000    
  4.060   1.466     -0.911757       1.14846     10.8012 -0.741807562       1.00000000    
  4.080   1.270      -1.12243      0.594538     10.8387 -0.111865359       1.00000000    
  4.100   1.071      -1.06689      0.981983E-01 10.8765  0.286250631       1.00000000    
  4.120  0.8803     -0.845769     -0.244208     10.9131  0.524010244       1.00000000    
  4.140  0.7068     -0.573029     -0.413762     10.9502  0.876944220       1.00000000    
  4.160  0.5592     -0.331425     -0.450383     10.9872   1.23393527       1.00000000    
  4.180  0.4423     -0.152917     -0.415005     11.0242   1.54345234       1.00000000    
  4.200  0.3545     -0.279938E-01 -0.353409     11.0608   1.73496971       1.00000000    
  4.220  0.2869      0.662292E-01 -0.279145     11.0975   1.75724788       1.00000000    
  4.240  0.2277      0.137522     -0.181497     11.1340   1.55168122       1.00000000    
  4.260  0.1742      0.166683     -0.507282E-01 11.1714   1.43707172       1.00000000    
  4.280  0.1534      0.119331      0.964695E-01 11.2077   1.52983153       1.00000000    
  4.300  0.2101     -0.253192E-01  0.208608     11.2438   1.73767969       1.00000000    
  4.320  0.3274     -0.245777      0.216299     11.2794   1.98623880       1.00000000    
  4.340  0.4735     -0.468513      0.685022E-01 11.3154   2.01943614       1.00000000    
  4.360  0.6309     -0.587496     -0.229834     11.3514   1.76960808       1.00000000    
  4.380  0.7868     -0.508508     -0.600347     11.3875   1.18247436       1.00000000    
  4.400  0.9298     -0.199408     -0.908204     11.4230  0.624965878       1.00000000    
  4.420   1.049      0.278854      -1.01176     11.4588  0.190541489       1.00000000    
  4.440   1.136      0.779935     -0.826164     11.4958 -0.122568459       1.00000000    
  4.460   1.182       1.12170     -0.372259     11.5317 -0.486343531       1.00000000    
  4.480   1.181       1.16093      0.215265     11.5673 -0.824886259       1.00000000    
  4.500   1.130      0.861769      0.730416     11.6022  -1.06291147       1.00000000    
  4.520   1.030      0.325361      0.976784     11.6383  -1.17607666       1.00000000    
  4.540  0.8873     -0.238219      0.854766     11.6736  -1.26309179       1.00000000    
  4.560  0.7223     -0.590268      0.416346     11.7084  -1.48742408       1.00000000    
  4.580  0.5835     -0.566141     -0.141194     11.7434  -1.68823670       1.00000000    
  4.600  0.5690     -0.157015     -0.546902     11.7786  -1.92470643       1.00000000    
  4.620  0.7364      0.467912     -0.568681     11.8136  -2.16137338       1.00000000    
  4.640   1.022       1.01502     -0.121622     11.8485  -2.25180115       1.00000000    
  4.660   1.360       1.18026      0.675532     11.8829  -2.01708218       1.00000000    
  4.680   1.714      0.780487       1.52544     11.9177  -1.45167940       1.00000000    
  4.700   2.062     -0.152246       2.05590     11.9534 -0.931523391       1.00000000    
  4.720   2.389      -1.35652       1.96591     11.9873 -0.515778471       1.00000000    
  4.740   2.682      -2.42023       1.15683     12.0218 -0.289613065       1.00000000    
  4.760   2.934      -2.92717     -0.206082     12.0566 -0.193702185       1.00000000    
  4.780   3.138      -2.61712      -1.73141     12.0915  0.123070172       1.00000000    
  4.800   3.290      -1.49658      -2.92970     12.1256  0.555506618       1.00000000    
  4.820   3.389      0.145570      -3.38607     12.1596   1.05978028       1.00000000    
  4.840   3.438       1.82714      -2.91250     12.1935   1.50558577       1.00000000    
  4.860   3.441       3.03531      -1.62117     12.2274   1.85074022       1.00000000    
  4.880   3.404       3.40241      0.109626     12.2614   2.14729761       1.00000000    
  4.900   3.335       2.82966       1.76435     12.2948   2.47451910       1.00000000    
  4.920   3.240       1.51389       2.86476     12.3291   2.73945757       1.00000000    
  4.940   3.128     -0.129435       3.12517     12.3627   2.90335893       1.00000000    
  4.960   3.004      -1.61426       2.53290     12.3976   2.96265876       1.00000000    
  4.980   2.872      -2.54512       1.32964     12.4309   2.77267578       1.00000000    
  5.000   2.734      -2.73258     -0.916586E-01 12.4643   2.27170846       1.00000000    
  5.020   2.593      -2.22591      -1.32906     12.4979   1.75164971       1.00000000    
  5.040   2.447      -1.26088      -2.09734     12.5315   1.39880662       1.00000000    
  5.060   2.299     -0.153409      -2.29390     12.5646  0.800408269       1.00000000    
  5.080   2.150      0.813561      -1.99033     12.5977 -0.207033717       1.00000000    
  5.100   2.005       1.46661      -1.36657     12.6304  -1.04797710       1.00000000    
  5.120   1.868       1.76047     -0.624700     12.6632  -1.65103611       1.00000000    
  5.140   1.747       1.74522      0.788172E-01 12.6958  -2.11390000       1.00000000    
  5.160   1.647       1.50948      0.659135     12.7283  -2.23954195       1.00000000    
  5.180   1.571       1.13244       1.08817     12.7610  -1.99271885       1.00000000    
  5.200   1.514      0.666046       1.35957     12.7937  -1.74260154       1.00000000    
  5.220   1.468      0.148125       1.46095     12.8277  -1.40444661       1.00000000    
  5.240   1.421     -0.371134       1.37171     12.8602  -1.12669005       1.00000000    
  5.260   1.358     -0.814067       1.08645     12.8926  -1.00242183       1.00000000    
  5.280   1.265      -1.08815      0.645794     12.9252 -0.981751642       1.00000000    
  5.300   1.135      -1.12456      0.149905     12.9579  -1.15676798       1.00000000    
  5.320  0.9591     -0.922534     -0.262267     12.9903  -1.57406930       1.00000000    
  5.340  0.7372     -0.571547     -0.465666     13.0224  -2.34360624       1.00000000    
  5.360  0.4717     -0.231191     -0.411172     13.0545  -2.99792620       1.00000000    
  5.380  0.1782     -0.690490E-01 -0.164227     13.0873  -3.54630119       1.00000000    
  5.400  0.2094     -0.180479      0.106144     13.1199  -3.63598261       1.00000000    
  5.420  0.5622     -0.528205      0.192443     13.1512  -3.27564745       1.00000000    
  5.440  0.9375     -0.935944     -0.547176E-01 13.1832  -2.67055138       1.00000000    
  5.460   1.315      -1.14865     -0.640685     13.2149  -1.93342373       1.00000000    
  5.480   1.683     -0.941171      -1.39468     13.2474 -0.970155945       1.00000000    
  5.500   2.028     -0.231441      -2.01495     13.2791  0.246598980       1.00000000    
  5.520   2.343      0.853621      -2.18143     13.3114   1.46708088       1.00000000    
  5.540   2.617       1.99564      -1.69368     13.3428   2.60896730       1.00000000    
  5.560   2.847       2.78819     -0.576058     13.3744   3.56525301       1.00000000    
  5.580   3.027       2.89063      0.899425     13.4059   4.25377096       1.00000000    
  5.600   3.156       2.17152       2.29034     13.4375   4.83114586       1.00000000    
  5.620   3.233      0.780617       3.13741     13.4687   5.12422563       1.00000000    
  5.640   3.259     -0.885524       3.13641     13.5000   5.05729825       1.00000000    
  5.660   3.236      -2.31637       2.25943     13.5318   4.87711557       1.00000000    
  5.680   3.166      -3.06970      0.774533     13.5632   4.39544194       1.00000000    
  5.700   3.052      -2.93204     -0.847152     13.5942   3.71145244       1.00000000    
  5.720   2.897      -1.99347      -2.10194     13.6253   2.99518808       1.00000000    
  5.740   2.704     -0.607038      -2.63476     13.6569   2.08281546       1.00000000    
  5.760   2.476      0.750180      -2.35960     13.6879  0.733510767       1.00000000    
  5.780   2.217       1.65739      -1.47312     13.7188 -0.838130811       1.00000000    
  5.800   1.933       1.89919     -0.359675     13.7493  -2.01744158       1.00000000    
  5.820   1.628       1.52548      0.569776     13.7805  -2.86841938       1.00000000    
  5.840   1.311      0.802874       1.03650     13.8117  -3.43690089       1.00000000    
  5.860  0.9899      0.841225E-01  0.986355     13.8424  -3.63948748       1.00000000    
  5.880  0.6767     -0.345228      0.581965     13.8730  -3.56918034       1.00000000    
  5.900  0.3914     -0.376910      0.105381     13.9037  -3.31241951       1.00000000    
  5.920  0.2080     -0.103084     -0.180635     13.9348  -2.79240356       1.00000000    
  5.940  0.2920      0.251020     -0.149204     13.9648  -2.20198459       1.00000000    
  5.960  0.4718      0.448490      0.146361     13.9953  -1.70285986       1.00000000    
  5.980  0.6275      0.357513      0.515687     14.0258  -1.32569752       1.00000000    
  6.000  0.7368      0.993878E-02  0.736724     14.0567  -1.15043493       1.00000000    
  6.020  0.7929     -0.422881      0.670704     14.0871  -1.37339784       1.00000000    
  6.040  0.7946     -0.722091      0.331546     14.1177  -1.47847511       1.00000000    
  6.060  0.7450     -0.734891     -0.122393     14.1481  -1.46403055       1.00000000    
  6.080  0.6528     -0.454150     -0.468881     14.1792  -1.33066462       1.00000000    
  6.100  0.5356     -0.254275E-01 -0.535012     14.2090  -1.25817196       1.00000000    
  6.120  0.4323      0.322450     -0.287922     14.2390  -1.05171052       1.00000000    
  6.140  0.4155      0.390611      0.141567     14.2694 -0.950229311       1.00000000    
  6.160  0.5278      0.113263      0.515533     14.2994 -0.745705961       1.00000000    
  6.180  0.7216     -0.399332      0.601068     14.3293 -0.553920889       1.00000000    
  6.200  0.9453     -0.900878      0.286450     14.3587 -0.513212167       1.00000000    
  6.220   1.171      -1.11665     -0.353332     14.3887 -0.374577166       1.00000000    
  6.240   1.384     -0.871478      -1.07455     14.4184 -0.221477749E-01   1.00000000    
  6.260   1.572     -0.180244      -1.56172     14.4493  0.313456288       1.00000000    
  6.280   1.730      0.741910      -1.56308     14.4790  0.731178432       1.00000000    
  6.300   1.854       1.55735      -1.00572     14.5092   1.12414908       1.00000000    
  6.320   1.941       1.94086     -0.391078E-01 14.5396   1.55730135       1.00000000    
  6.340   1.992       1.71502       1.01421     14.5704   2.06598563       1.00000000    
  6.360   2.009      0.928324       1.78175     14.5999   2.70175401       1.00000000    
  6.380   1.994     -0.157816       1.98751     14.6296   3.31772333       1.00000000    
  6.400   1.950      -1.16846       1.56095     14.6594   3.64541186       1.00000000    
  6.420   1.881      -1.75997      0.663656     14.6900   3.69549513       1.00000000    
  6.440   1.791      -1.75073     -0.376470     14.7196   3.61546852       1.00000000    
  6.460   1.683      -1.18487      -1.19493     14.7486   3.19136702       1.00000000    
  6.480   1.561     -0.305428      -1.53032     14.7785   2.84319335       1.00000000    
  6.500   1.427      0.549320      -1.31735     14.8078   2.61950577       1.00000000    
  6.520   1.287       1.08102     -0.698042     14.8372   2.28350536       1.00000000    
  6.540   1.143       1.14219      0.491402E-01 14.8660   1.65410485       1.00000000    
  6.560   1.002      0.779722      0.628847     14.8950   1.08263575       1.00000000    
  6.580  0.8685      0.197946      0.845640     14.9241  0.482748677       1.00000000    
  6.600  0.7513     -0.337987      0.671030     14.9543 -0.124226634       1.00000000    
  6.620  0.6588     -0.614572      0.237368     14.9833 -0.689734697       1.00000000    
  6.640  0.5982     -0.550997     -0.232916     15.0125  -1.35190954       1.00000000    
  6.660  0.5715     -0.218216     -0.528159     15.0414  -1.82981457       1.00000000    
  6.680  0.5726      0.206323     -0.534103     15.0712  -2.31642651       1.00000000    
  6.700  0.5900      0.523667     -0.271702     15.1005  -2.71792517       1.00000000    
  6.720  0.6118      0.598933      0.125052     15.1293  -3.35329215       1.00000000    
  6.740  0.6296      0.411705      0.476291     15.1580  -3.64277194       1.00000000    
  6.760  0.6381      0.535910E-01  0.635849     15.1873  -3.62076573       1.00000000    
  6.780  0.6355     -0.320649      0.548675     15.2159  -3.39042131       1.00000000    
  6.800  0.6220     -0.563050      0.264313     15.2446  -3.20420829       1.00000000    
  6.820  0.5993     -0.591827     -0.943559E-01 15.2731  -2.94377478       1.00000000    
  6.840  0.5698     -0.416545     -0.388866     15.3016  -2.54458815       1.00000000    
  6.860  0.5362     -0.122705     -0.521990     15.3314  -2.14344036       1.00000000    
  6.880  0.5006      0.172483     -0.469940     15.3597  -1.53924854       1.00000000    
  6.900  0.4644      0.370583     -0.279872     15.3881  -1.24385185       1.00000000    
  6.920  0.4282      0.426427     -0.389657E-01 15.4171 -0.916738112       1.00000000    
  6.940  0.3920      0.354582      0.167219     15.4460 -0.622806273       1.00000000    
  6.960  0.3559      0.209889      0.287363     15.4744 -0.144524624       1.00000000    
  6.980  0.3203      0.553737E-01  0.315440     15.5032  0.174985922E-01   1.00000000    
  7.000  0.2872     -0.656338E-01  0.279550     15.5315  0.140051089       1.00000000    
  7.020  0.2600     -0.141245      0.218310     15.5606  0.310581275       1.00000000    
  7.040  0.2434     -0.184511      0.158758     15.5889  0.481606765       1.00000000    
  7.060  0.2407     -0.215913      0.106496     15.6171  0.532238433       1.00000000    
  7.080  0.2516     -0.246422      0.506394E-01 15.6452  0.734837154       1.00000000    
  7.100  0.2713     -0.270436     -0.221024E-01 15.6735   1.19849189       1.00000000    
  7.120  0.2940     -0.271034     -0.114027     15.7018   1.86847376       1.00000000    
  7.140  0.3146     -0.232641     -0.211779     15.7297   2.67427354       1.00000000    
  7.160  0.3298     -0.152437     -0.292421     15.7577   3.34805846       1.00000000    
  7.180  0.3384     -0.434288E-01 -0.335565     15.7856   3.69401995       1.00000000    
  7.200  0.3413      0.722461E-01 -0.333534     15.8141   4.24186569       1.00000000    
  7.220  0.3414      0.174990     -0.293137     15.8419   4.61478949       1.00000000    
  7.240  0.3434      0.256517     -0.228249     15.8697   4.60677300       1.00000000    
  7.260  0.3525      0.319717     -0.148448     15.8978   4.39332706       1.00000000    
  7.280  0.3730      0.369413     -0.519008E-01 15.9258   3.87870851       1.00000000    
  7.300  0.4064      0.400108      0.715035E-01 15.9540   3.06128183       1.00000000    
  7.320  0.4511      0.389829      0.227084     15.9812   1.66526251       1.00000000    
  7.340  0.5038      0.306690      0.399643     16.0088  0.618762454       1.00000000    
  7.360  0.5606      0.127723      0.545810     16.0364 -0.483509867       1.00000000    
  7.380  0.6184     -0.138575      0.602630     16.0651  -1.04236937       1.00000000    
  7.400  0.6749     -0.438971      0.512619     16.0922  -1.33589157       1.00000000    
  7.420  0.7288     -0.682367      0.255850     16.1195  -1.37669572       1.00000000    
  7.440  0.7793     -0.768940     -0.126531     16.1471  -1.26323113       1.00000000    
  7.460  0.8262     -0.632282     -0.531889     16.1756  -1.01442778       1.00000000    
  7.480  0.8696     -0.276629     -0.824443     16.2031  -1.00562335       1.00000000    
  7.500  0.9093      0.209622     -0.884767     16.2308  -1.25972644       1.00000000    
  7.520  0.9448      0.674680     -0.661436     16.2578  -1.62212372       1.00000000    
  7.540  0.9756      0.954512     -0.201874     16.2859  -2.06863760       1.00000000    
  7.560   1.001      0.936025      0.354007     16.3132  -2.49679690       1.00000000    
  7.580   1.019      0.606349      0.819033     16.3403  -2.90908741       1.00000000    
  7.600   1.030      0.658393E-01   1.02741     16.3675  -3.02961546       1.00000000    
  7.620   1.031     -0.503680      0.899803     16.3948  -3.39957930       1.00000000    
  7.640   1.023     -0.905166      0.477373     16.4222  -3.58515532       1.00000000    
  7.660   1.005      -1.00135     -0.909644E-01 16.4490  -3.68511922       1.00000000    
  7.680  0.9773     -0.767798     -0.604640     16.4761  -3.49989241       1.00000000    
  7.700  0.9385     -0.301414     -0.888813     16.5037  -3.21897309       1.00000000    
  7.720  0.8889      0.219709     -0.861302     16.5319  -2.89743672       1.00000000    
  7.740  0.8279      0.608732     -0.561165     16.5590  -2.47991700       1.00000000    
  7.760  0.7551      0.744313     -0.127123     16.5860  -2.11361345       1.00000000    
  7.780  0.6698      0.615314      0.264499     16.6131  -1.53364601       1.00000000    
  7.800  0.5714      0.317393      0.475139     16.6407 -0.764806337       1.00000000    
  7.820  0.4599      0.396908E-02  0.459836     16.6673 -0.959265026E-01   1.00000000    
  7.840  0.3357     -0.185900      0.279475     16.6942  0.849936996       1.00000000    
  7.860  0.2009     -0.190132      0.649665E-01 16.7210   1.79817724       1.00000000    
  7.880  0.6941E-01 -0.485753E-01 -0.495851E-01 16.7484   2.73674035       1.00000000    
  7.900  0.1209      0.120690      0.633200E-02 16.7751   3.42258142       1.00000000    
  7.920  0.2737      0.182472      0.203942     16.8019   4.06556372       1.00000000    
  7.940  0.4310      0.545486E-01  0.427486     16.8291   4.24896508       1.00000000    
  7.960  0.5839     -0.246234      0.529470     16.8559   3.77164844       1.00000000    
  7.980  0.7267     -0.604212      0.403830     16.9074   3.30456084       1.00000000    
  8.000  0.8540     -0.852938      0.431674E-01 16.9381   2.83233038       1.00000000    
  8.000  0.8540     -0.852938      0.431674E-01 16.9695   2.59682956       1.00000000    
  8.000  0.8540     -0.852938      0.431674E-01 17.0013   2.60195044       1.00000000    
  8.000  0.8540     -0.852938      0.431674E-01 17.0323   2.02817446       1.00000000    
  8.000  0.8540     -0.852938      0.431674E-01 17.0633   1.28382214       1.00000000    
  8.000  0.8540     -0.852938      0.431674E-01 17.0943  0.812992831       1.00000000    
  8.000  0.8540     -0.852938      0.431674E-01 17.1258  0.467030111       1.00000000    
  8.000  0.8540     -0.852938      0.431674E-01 17.1563 -0.420995662       1.00000000    
  8.000  0.8540     -0.852938      0.431674E-01 17.1873  -1.27023553      0.999971193    
  8.000  0.8540     -0.852938      0.431674E-01 17.2197  -1.79718707      0.996840103    
  8.000  0.8540     -0.852938      0.431674E-01 17.2503  -1.82641110      0.989139008    
  8.000  0.8540     -0.852938      0.431674E-01 17.2814  -1.13845470      0.976709526    
  8.000  0.8540     -0.852938      0.431674E-01 17.3119  0.255420458E-01  0.960121615    
  8.000  0.8540     -0.852938      0.431674E-01 17.3432  0.996034334      0.938654274    
  8.000  0.8540     -0.852938      0.431674E-01 17.3740   1.62342165      0.913427450    
  8.000  0.8540     -0.852938      0.431674E-01 17.4047   1.77693464      0.884465565    
  8.000  0.8540     -0.852938      0.431674E-01 17.4358   1.19572042      0.851436352    
  8.000  0.8540     -0.852938      0.431674E-01 17.4665  0.388550414      0.815568876    
  8.000  0.8540     -0.852938      0.431674E-01 17.4967 -0.950522774      0.777390107    
  8.000  0.8540     -0.852938      0.431674E-01 17.5274  -2.04923663      0.735967313    
  8.000  0.8540     -0.852938      0.431674E-01 17.5582  -2.48138752      0.692367526    
  8.000  0.8540     -0.852938      0.431674E-01 17.5887  -2.51590201      0.647280065    
  8.000  0.8540     -0.852938      0.431674E-01 17.6196  -2.21819204      0.600266609    
  8.000  0.8540     -0.852938      0.431674E-01 17.6501  -1.84189029      0.552927443    
  8.000  0.8540     -0.852938      0.431674E-01 17.6806  -1.41088316      0.505185101    
  8.000  0.8540     -0.852938      0.431674E-01 17.7108  -1.21932613      0.457755620    
  8.000  0.8540     -0.852938      0.431674E-01 17.7411  -1.10633702      0.410614901    
  8.000  0.8540     -0.852938      0.431674E-01 17.7715 -0.970225150      0.364059397    
  8.000  0.8540     -0.852938      0.431674E-01 17.8023 -0.806964993      0.318271540    
  8.000  0.8540     -0.852938      0.431674E-01 17.8321 -0.558353662      0.275502409    
  8.000  0.8540     -0.852938      0.431674E-01 17.8623 -0.252988114      0.234151603    
  8.000  0.8540     -0.852938      0.431674E-01 17.8925 -0.226182064E-01  0.195250829    
  8.000  0.8540     -0.852938      0.431674E-01 17.9226  0.189892165      0.159155064    
  8.000  0.8540     -0.852938      0.431674E-01 17.9533  0.344121784      0.125538190    
  8.000  0.8540     -0.852938      0.431674E-01 17.9839  0.375826942      0.954915028E-01
